Timestamp,F3 Value,F3 Quality,FC5 Value,FC5 Quality,F7 Value,F7 Quality,T7 Value,T7 Quality,P7 Value,P7 Quality,O1 Value,O1 Quality,O2 Value,O2 Quality,P8 Value,P8 Quality,T8 Value,T8 Quality,F8 Value,F8 Quality,AF4 Value,AF4 Quality,FC6 Value,FC6 Quality,F4 Value,F4 Quality,AF3 Value,AF3 Quality,X Value,Y Value,Z Value
2018-01-26 08:37:47.447000,4148.70967742,0,4150.32258065,0,4152.90322581,0,4180.64516129,0,4162.58064516,0,4138.38709677,0,4164.83870968,0,4163.5483871,0,4161.93548387,0,4142.58064516,0,4179.67741935,0,4167.41935484,0,4198.70967742,0,4156.77419355,0,0,0,?
2018-01-26 08:37:47.448000,4140.32258065,0,4160.32258065,0,4170.96774194,0,4183.5483871,0,4155.16129032,0,4179.03225806,0,4163.87096774,0,4155.16129032,0,4180.32258065,0,4141.29032258,0,4174.83870968,0,4161.29032258,0,4192.58064516,0,4140.0,0,0,0,?
2018-01-26 08:37:47.452000,4166.4516129,0,4166.4516129,0,4160.0,0,4181.29032258,0,4138.06451613,0,4170.96774194,0,4153.5483871,0,4147.09677419,0,4150.96774194,0,4153.22580645,0,4166.77419355,0,4164.51612903,0,4205.16129032,0,4157.09677419,0,0,0,?
2018-01-26 08:37:47.466000,4144.51612903,0,4150.64516129,0,4153.5483871,0,4169.03225806,0,4150.32258065,0,4140.0,0,4164.83870968,0,4177.09677419,0,4178.70967742,0,4172.25806452,0,4178.38709677,0,4181.93548387,0,4211.29032258,0,4150.32258065,0,0,0,?
2018-01-26 08:37:47.477000,4152.90322581,0,4159.35483871,0,4159.35483871,0,4155.80645161,0,4156.4516129,0,4146.4516129,0,4186.77419355,0,4190.0,0,4203.22580645,0,4182.90322581,0,4185.80645161,0,4185.16129032,0,4204.51612903,0,4149.03225806,0,0,0,?
2018-01-26 08:37:47.480000,4152.90322581,0,4159.35483871,0,4159.35483871,0,4155.80645161,0,4156.4516129,0,4146.4516129,0,4186.77419355,0,4190.0,0,4203.22580645,0,4182.90322581,0,4185.80645161,0,4185.16129032,0,4204.51612903,0,4149.03225806,0,0,0,?
2018-01-26 08:37:47.484000,4160.64516129,0,4164.19354839,0,4166.12903226,0,4172.58064516,0,4155.48387097,0,4141.61290323,0,4191.93548387,0,4173.87096774,0,4176.12903226,0,4188.38709677,0,4178.70967742,0,4180.96774194,0,4205.48387097,0,4151.29032258,0,0,0,?
2018-01-26 08:37:47.492000,4133.5483871,0,4147.09677419,0,4132.25806452,0,4185.16129032,0,4154.83870968,0,4145.48387097,0,4173.22580645,0,4168.06451613,0,4179.67741935,0,4180.0,0,4177.09677419,0,4181.61290323,0,4197.09677419,0,4139.03225806,0,0,0,?
2018-01-26 08:37:47.494000,4153.22580645,0,4151.29032258,0,4157.74193548,0,4198.38709677,0,4156.12903226,0,4140.32258065,0,4176.77419355,0,4187.74193548,0,4168.70967742,0,4186.12903226,0,4194.83870968,0,4183.5483871,0,4200.32258065,0,4150.0,0,0,0,?
2018-01-26 08:37:47.506000,4151.93548387,0,4159.03225806,0,4155.16129032,0,4196.12903226,0,4173.87096774,0,4139.03225806,0,4195.80645161,0,4204.51612903,0,4187.41935484,0,4189.03225806,0,4189.35483871,0,4185.16129032,0,4207.74193548,0,4143.5483871,0,0,0,?
2018-01-26 08:37:47.510000,4160.96774194,0,4157.74193548,0,4178.06451613,0,4154.19354839,0,4170.0,0,4142.90322581,0,4188.06451613,0,4193.5483871,0,4186.12903226,0,4172.58064516,0,4170.64516129,0,4176.12903226,0,4197.09677419,0,4150.64516129,0,0,0,?
2018-01-26 08:37:47.524000,4161.29032258,0,4147.09677419,0,4148.70967742,0,4160.64516129,0,4160.64516129,0,4146.4516129,0,4183.5483871,0,4189.67741935,0,4205.16129032,0,4179.03225806,0,4173.5483871,0,4169.03225806,0,4192.25806452,0,4152.25806452,0,0,0,?
2018-01-26 08:37:47.525000,4136.77419355,0,4142.90322581,0,4165.48387097,0,4200.32258065,0,4158.06451613,0,4147.41935484,0,4187.09677419,0,4185.48387097,0,4189.03225806,0,4179.67741935,0,4174.19354839,0,4175.16129032,0,4193.5483871,0,4133.22580645,0,0,0,?
2018-01-26 08:37:47.537000,4161.93548387,0,4153.22580645,0,4166.12903226,0,4191.29032258,0,4153.87096774,0,4141.93548387,0,4184.19354839,0,4175.16129032,0,4197.74193548,0,4163.87096774,0,4178.70967742,0,4184.51612903,0,4195.16129032,0,4152.90322581,0,0,0,?
2018-01-26 08:37:47.542000,4155.16129032,0,4154.83870968,0,4176.4516129,0,4182.58064516,0,4167.41935484,0,4146.12903226,0,4182.90322581,0,4177.41935484,0,4170.32258065,0,4159.35483871,0,4172.90322581,0,4175.48387097,0,4192.25806452,0,4146.4516129,0,0,0,?
2018-01-26 08:37:47.556000,4158.70967742,0,4167.74193548,0,4210.96774194,0,4170.96774194,0,4171.61290323,0,4150.96774194,0,4185.80645161,0,4169.67741935,0,4173.87096774,0,4168.38709677,0,4162.25806452,0,4164.51612903,0,4201.29032258,0,4154.19354839,0,0,0,?
2018-01-26 08:37:47.558000,4165.48387097,0,4172.58064516,0,4188.70967742,0,4156.77419355,0,4169.67741935,0,4163.22580645,0,4196.12903226,0,4175.48387097,0,4168.70967742,0,4187.41935484,0,4179.35483871,0,4178.38709677,0,4164.19354839,0,4183.5483871,0,0,0,?
2018-01-26 08:37:47.575000,4141.29032258,0,4156.12903226,0,4166.4516129,0,4182.90322581,0,4161.61290323,0,4159.67741935,0,4187.74193548,0,4182.25806452,0,4198.38709677,0,4177.74193548,0,4191.61290323,0,4184.51612903,0,4201.93548387,0,4164.83870968,0,0,0,?
2018-01-26 08:37:47.577000,4163.22580645,0,4151.93548387,0,4170.64516129,0,4209.35483871,0,4158.70967742,0,4139.03225806,0,4160.0,0,4165.16129032,0,4175.16129032,0,4161.93548387,0,4185.16129032,0,4179.35483871,0,4196.4516129,0,4154.83870968,0,0,0,?
2018-01-26 08:37:47.588000,4152.25806452,0,4145.48387097,0,4181.93548387,0,4196.77419355,0,4173.22580645,0,4145.48387097,0,4165.16129032,0,4175.80645161,0,4206.4516129,0,4169.35483871,0,4179.35483871,0,4171.29032258,0,4201.61290323,0,4145.48387097,0,0,0,?
2018-01-26 08:37:47.592000,4152.58064516,0,4147.09677419,0,4164.83870968,0,4159.03225806,0,4162.58064516,0,4156.77419355,0,4179.35483871,0,4191.61290323,0,4168.70967742,0,4170.0,0,4172.90322581,0,4164.51612903,0,4202.90322581,0,4149.35483871,0,0,0,?
2018-01-26 08:37:47.603000,4170.96774194,0,4149.03225806,0,4162.25806452,0,4160.32258065,0,4154.83870968,0,4149.35483871,0,4177.74193548,0,4183.22580645,0,4202.25806452,0,4166.12903226,0,4168.38709677,0,4169.03225806,0,4196.4516129,0,4158.38709677,0,0,0,?
2018-01-26 08:37:47.605000,4142.90322581,0,4135.16129032,0,4162.25806452,0,4176.77419355,0,4160.96774194,0,4135.16129032,0,4177.41935484,0,4172.90322581,0,4200.32258065,0,4157.09677419,0,4164.51612903,0,4167.09677419,0,4190.32258065,0,4140.64516129,0,0,0,?
2018-01-26 08:37:47.622000,4163.5483871,0,4140.0,0,4138.06451613,0,4165.48387097,0,4159.03225806,0,4133.87096774,0,4171.29032258,0,4167.41935484,0,4172.90322581,0,4153.22580645,0,4165.80645161,0,4154.19354839,0,4200.32258065,0,4153.87096774,0,0,0,?
2018-01-26 08:37:47.626000,4155.80645161,0,4142.58064516,0,4147.74193548,0,4175.48387097,0,4162.90322581,0,4136.77419355,0,4172.90322581,0,4171.93548387,0,4158.38709677,0,4156.12903226,0,4150.96774194,0,4154.19354839,0,4190.0,0,4152.25806452,0,0,0,?
2018-01-26 08:37:47.635000,4135.80645161,0,4140.64516129,0,4166.4516129,0,4182.90322581,0,4145.16129032,0,4132.25806452,0,4168.38709677,0,4161.93548387,0,4166.12903226,0,4146.12903226,0,4142.90322581,0,4161.29032258,0,4175.16129032,0,4143.22580645,0,0,0,?
2018-01-26 08:37:47.637000,4161.29032258,0,4147.09677419,0,4166.4516129,0,4167.74193548,0,4136.4516129,0,4136.4516129,0,4169.03225806,0,4160.64516129,0,4191.93548387,0,4151.61290323,0,4166.12903226,0,4170.64516129,0,4188.38709677,0,4152.58064516,0,0,0,?
2018-01-26 08:37:47.651000,4147.41935484,0,4144.19354839,0,4160.0,0,4155.16129032,0,4160.0,0,4142.58064516,0,4181.29032258,0,4174.19354839,0,4195.16129032,0,4161.93548387,0,4166.12903226,0,4175.80645161,0,4193.5483871,0,4138.38709677,0,0,0,?
2018-01-26 08:37:47.654000,4153.22580645,0,4146.12903226,0,4160.0,0,4161.29032258,0,4166.77419355,0,4142.58064516,0,4170.96774194,0,4161.29032258,0,4148.06451613,0,4144.51612903,0,4146.4516129,0,4152.58064516,0,4192.25806452,0,4144.19354839,0,0,0,?
2018-01-26 08:37:47.674000,4150.64516129,0,4131.29032258,0,4159.67741935,0,4197.74193548,0,4159.03225806,0,4137.41935484,0,4153.87096774,0,4143.5483871,0,4145.48387097,0,4175.16129032,0,4135.80645161,0,4140.64516129,0,4188.06451613,0,4129.03225806,0,0,0,?
2018-01-26 08:37:47.678000,4149.35483871,0,4108.38709677,0,4169.35483871,0,4201.61290323,0,4152.90322581,0,4131.29032258,0,4146.12903226,0,4136.4516129,0,4139.03225806,0,4170.64516129,0,4134.83870968,0,4149.67741935,0,4180.32258065,0,4169.03225806,0,0,0,?
2018-01-26 08:37:47.689000,4168.70967742,0,4102.25806452,0,4159.35483871,0,4152.25806452,0,4165.80645161,0,4141.61290323,0,4151.93548387,0,4145.80645161,0,4145.16129032,0,4174.83870968,0,4143.5483871,0,4149.35483871,0,4185.80645161,0,4152.25806452,0,0,0,?
2018-01-26 08:37:47.692000,4146.77419355,0,4103.5483871,0,4137.09677419,0,4168.70967742,0,4174.83870968,0,4153.22580645,0,4165.80645161,0,4163.5483871,0,4147.74193548,0,4169.03225806,0,4145.16129032,0,4141.93548387,0,4189.35483871,0,4152.58064516,0,0,0,?
2018-01-26 08:37:47.705000,4169.35483871,0,4120.64516129,0,4169.67741935,0,4131.29032258,0,4148.38709677,0,4147.09677419,0,4165.48387097,0,4166.77419355,0,4146.12903226,0,4171.61290323,0,4146.77419355,0,4142.90322581,0,4192.25806452,0,4154.19354839,0,0,0,?
2018-01-26 08:37:47.714000,4169.67741935,0,4127.74193548,0,4174.19354839,0,4163.22580645,0,4138.70967742,0,4140.64516129,0,4167.09677419,0,4169.67741935,0,4182.90322581,0,4140.96774194,0,4146.77419355,0,4156.4516129,0,4202.58064516,0,4146.12903226,0,0,0,?
2018-01-26 08:37:47.722000,4141.29032258,0,4131.61290323,0,4174.19354839,0,4167.74193548,0,4143.87096774,0,4138.70967742,0,4174.51612903,0,4165.80645161,0,4163.22580645,0,4144.19354839,0,4146.77419355,0,4161.29032258,0,4199.03225806,0,4136.12903226,0,0,0,?
2018-01-26 08:37:47.728000,4168.38709677,0,4139.35483871,0,4150.96774194,0,4164.19354839,0,4140.0,0,4134.83870968,0,4175.48387097,0,4160.0,0,4149.03225806,0,4140.32258065,0,4158.70967742,0,4155.80645161,0,4194.83870968,0,4150.96774194,0,0,0,?
2018-01-26 08:37:47.736000,4153.22580645,0,4126.4516129,0,4147.74193548,0,4134.51612903,0,4138.38709677,0,4132.58064516,0,4169.35483871,0,4172.90322581,0,4172.25806452,0,4132.90322581,0,4140.64516129,0,4143.5483871,0,4193.5483871,0,4131.61290323,0,0,0,?
2018-01-26 08:37:47.742000,4146.12903226,0,4128.38709677,0,4150.96774194,0,4152.90322581,0,4143.87096774,0,4133.87096774,0,4167.41935484,0,4172.90322581,0,4153.87096774,0,4135.16129032,0,4166.12903226,0,4134.51612903,0,4194.19354839,0,4132.58064516,0,0,0,?
2018-01-26 08:37:47.752000,4151.61290323,0,4133.22580645,0,4195.16129032,0,4168.38709677,0,4153.87096774,0,4138.06451613,0,4177.41935484,0,4160.96774194,0,4179.03225806,0,4146.12903226,0,4133.5483871,0,4148.06451613,0,4199.35483871,0,4144.83870968,0,0,0,?
2018-01-26 08:37:47.758000,4151.29032258,0,4127.09677419,0,4137.09677419,0,4201.93548387,0,4139.67741935,0,4137.74193548,0,4169.03225806,0,4149.67741935,0,4143.22580645,0,4134.51612903,0,4141.29032258,0,4151.29032258,0,4191.29032258,0,4147.09677419,0,0,0,?
2018-01-26 08:37:47.767000,4169.35483871,0,4130.0,0,4129.03225806,0,4141.29032258,0,4133.87096774,0,4139.67741935,0,4158.38709677,0,4155.48387097,0,4174.83870968,0,4140.96774194,0,4178.38709677,0,4143.87096774,0,4189.03225806,0,4160.0,0,0,0,?
2018-01-26 08:37:47.775000,4142.25806452,0,4127.41935484,0,4168.38709677,0,4133.5483871,0,4157.09677419,0,4152.90322581,0,4167.09677419,0,4174.83870968,0,4180.96774194,0,4154.83870968,0,4129.03225806,0,4141.93548387,0,4190.96774194,0,4130.96774194,0,0,0,?
2018-01-26 08:37:47.783000,4155.80645161,0,4136.12903226,0,4167.09677419,0,4167.41935484,0,4163.22580645,0,4154.19354839,0,4161.29032258,0,4168.70967742,0,4157.41935484,0,4144.83870968,0,4130.64516129,0,4141.93548387,0,4191.29032258,0,4131.61290323,0,0,0,?
2018-01-26 08:37:47.791000,4171.61290323,0,4150.32258065,0,4177.74193548,0,4183.87096774,0,4169.03225806,0,4145.48387097,0,4157.09677419,0,4163.87096774,0,4174.51612903,0,4151.93548387,0,4129.67741935,0,4148.38709677,0,4203.87096774,0,4152.58064516,0,0,0,?
2018-01-26 08:37:47.798000,4147.74193548,0,4143.5483871,0,4178.70967742,0,4183.22580645,0,4168.38709677,0,4143.22580645,0,4164.83870968,0,4170.64516129,0,4187.41935484,0,4154.83870968,0,4178.70967742,0,4154.83870968,0,4205.16129032,0,4141.29032258,0,0,0,?
2018-01-26 08:37:47.805000,4167.41935484,0,4135.16129032,0,4162.90322581,0,4177.09677419,0,4157.09677419,0,4143.87096774,0,4167.74193548,0,4174.19354839,0,4167.41935484,0,4140.64516129,0,4135.16129032,0,4149.03225806,0,4202.25806452,0,4146.77419355,0,0,0,?
2018-01-26 08:37:47.814000,4158.06451613,0,4136.77419355,0,4189.35483871,0,4167.74193548,0,4168.06451613,0,4150.0,0,4172.58064516,0,4180.32258065,0,4194.19354839,0,4138.70967742,0,4129.03225806,0,4143.22580645,0,4201.29032258,0,4141.29032258,0,0,0,?
2018-01-26 08:37:47.821000,4161.29032258,0,4151.93548387,0,4192.25806452,0,4148.38709677,0,4162.25806452,0,4149.35483871,0,4178.38709677,0,4172.90322581,0,4202.58064516,0,4143.22580645,0,4166.77419355,0,4149.67741935,0,4199.67741935,0,4145.80645161,0,0,0,?
2018-01-26 08:37:47.829000,4166.77419355,0,4154.83870968,0,4171.93548387,0,4179.03225806,0,4164.19354839,0,4151.61290323,0,4187.41935484,0,4177.09677419,0,4180.32258065,0,4153.5483871,0,4177.41935484,0,4157.41935484,0,4202.90322581,0,4156.77419355,0,0,0,?
2018-01-26 08:37:47.837000,4143.5483871,0,4149.03225806,0,4185.48387097,0,4164.51612903,0,4189.35483871,0,4159.67741935,0,4187.41935484,0,4189.35483871,0,4182.58064516,0,4153.22580645,0,4132.58064516,0,4153.5483871,0,4200.0,0,4148.38709677,0,0,0,?
2018-01-26 08:37:47.844000,4167.09677419,0,4150.0,0,4161.93548387,0,4178.70967742,0,4176.4516129,0,4153.5483871,0,4170.32258065,0,4181.93548387,0,4173.22580645,0,4140.64516129,0,4131.29032258,0,4145.48387097,0,4201.61290323,0,4151.61290323,0,0,0,?
2018-01-26 08:37:47.853000,4152.58064516,0,4133.87096774,0,4161.61290323,0,4150.32258065,0,4154.51612903,0,4143.22580645,0,4160.96774194,0,4171.61290323,0,4150.0,0,4130.0,0,4129.35483871,0,4146.12903226,0,4197.41935484,0,4134.51612903,0,0,0,?
2018-01-26 08:37:47.861000,4142.90322581,0,4132.90322581,0,4161.29032258,0,4161.29032258,0,4156.12903226,0,4137.74193548,0,4166.4516129,0,4172.25806452,0,4138.06451613,0,4129.35483871,0,4129.67741935,0,4151.93548387,0,4195.80645161,0,4139.03225806,0,0,0,?
2018-01-26 08:37:47.868000,4156.12903226,0,4143.22580645,0,4149.35483871,0,4160.0,0,4170.0,0,4143.5483871,0,4171.29032258,0,4185.48387097,0,4153.22580645,0,4144.19354839,0,4132.25806452,0,4152.58064516,0,4198.38709677,0,4148.38709677,0,0,0,?
2018-01-26 08:37:47.877000,4139.03225806,0,4133.5483871,0,4196.4516129,0,4145.80645161,0,4168.06451613,0,4145.80645161,0,4159.35483871,0,4181.93548387,0,4146.4516129,0,4131.61290323,0,4142.90322581,0,4138.06451613,0,4188.70967742,0,4173.87096774,0,0,0,?
2018-01-26 08:37:47.887000,4166.12903226,0,4132.25806452,0,4190.96774194,0,4150.64516129,0,4155.80645161,0,4140.64516129,0,4153.5483871,0,4164.19354839,0,4161.61290323,0,4167.74193548,0,4162.25806452,0,4131.93548387,0,4191.61290323,0,4143.87096774,0,0,0,?
2018-01-26 08:37:47.892000,4160.0,0,4133.87096774,0,4159.03225806,0,4165.16129032,0,4162.25806452,0,4142.25806452,0,4164.51612903,0,4171.29032258,0,4178.70967742,0,4131.29032258,0,4152.25806452,0,4148.38709677,0,4195.48387097,0,4148.70967742,0,0,0,?
2018-01-26 08:37:47.900000,4150.64516129,0,4137.09677419,0,4170.64516129,0,4135.80645161,0,4155.48387097,0,4142.25806452,0,4157.74193548,0,4171.61290323,0,4148.38709677,0,4174.19354839,0,4147.09677419,0,4150.64516129,0,4187.09677419,0,4132.25806452,0,0,0,?
2018-01-26 08:37:47.908000,4163.87096774,0,4136.77419355,0,4170.0,0,4164.19354839,0,4137.74193548,0,4134.51612903,0,4149.67741935,0,4160.64516129,0,4157.41935484,0,4152.58064516,0,4167.41935484,0,4144.83870968,0,4182.25806452,0,4135.16129032,0,0,0,?
2018-01-26 08:37:47.916000,4141.29032258,0,4123.5483871,0,4136.12903226,0,4139.35483871,0,4134.19354839,0,4171.61290323,0,4152.58064516,0,4152.90322581,0,4118.06451613,0,4156.4516129,0,4157.09677419,0,4146.4516129,0,4181.61290323,0,4171.93548387,0,0,0,?
2018-01-26 08:37:47.924000,4165.16129032,0,4122.90322581,0,4153.22580645,0,4152.58064516,0,4132.58064516,0,4172.58064516,0,4146.77419355,0,4151.61290323,0,4149.03225806,0,4132.58064516,0,4151.61290323,0,4149.35483871,0,4196.12903226,0,4139.03225806,0,0,0,?
2018-01-26 08:37:47.931000,4159.67741935,0,4125.16129032,0,4177.41935484,0,4145.48387097,0,4133.5483871,0,4134.83870968,0,4155.16129032,0,4166.12903226,0,4140.64516129,0,4174.83870968,0,4175.48387097,0,4150.64516129,0,4199.35483871,0,4142.25806452,0,0,0,?
2018-01-26 08:37:47.939000,4139.03225806,0,4136.4516129,0,4146.4516129,0,4168.70967742,0,4137.74193548,0,4137.09677419,0,4168.38709677,0,4168.06451613,0,4178.06451613,0,4147.09677419,0,4173.5483871,0,4145.16129032,0,4188.70967742,0,4135.80645161,0,0,0,?
2018-01-26 08:37:47.947000,4159.35483871,0,4146.4516129,0,4161.93548387,0,4166.77419355,0,4151.61290323,0,4140.0,0,4170.0,0,4169.67741935,0,4137.09677419,0,4175.48387097,0,4168.38709677,0,4143.22580645,0,4190.96774194,0,4140.32258065,0,0,0,?
2018-01-26 08:37:47.955000,4143.22580645,0,4124.83870968,0,4165.80645161,0,4144.83870968,0,4155.80645161,0,4147.41935484,0,4169.03225806,0,4179.35483871,0,4164.51612903,0,4143.22580645,0,4170.96774194,0,4139.03225806,0,4188.06451613,0,4172.58064516,0,0,0,?
2018-01-26 08:37:47.963000,4159.67741935,0,4120.0,0,4164.51612903,0,4142.58064516,0,4137.09677419,0,4147.74193548,0,4167.09677419,0,4166.12903226,0,4138.06451613,0,4168.06451613,0,4162.58064516,0,4136.77419355,0,4187.09677419,0,4139.67741935,0,0,0,?
2018-01-26 08:37:47.971000,4161.29032258,0,4135.16129032,0,4142.58064516,0,4145.16129032,0,4151.93548387,0,4147.09677419,0,4175.16129032,0,4168.06451613,0,4170.32258065,0,4173.5483871,0,4167.09677419,0,4149.35483871,0,4198.38709677,0,4149.03225806,0,0,0,?
2018-01-26 08:37:47.982000,4141.61290323,0,4139.03225806,0,4175.16129032,0,4147.09677419,0,4160.96774194,0,4143.22580645,0,4168.38709677,0,4179.67741935,0,4153.5483871,0,4137.41935484,0,4178.70967742,0,4150.0,0,4197.41935484,0,4134.83870968,0,0,0,?
2018-01-26 08:37:47.988000,4159.67741935,0,4133.22580645,0,4147.41935484,0,4149.03225806,0,4139.67741935,0,4136.77419355,0,4153.87096774,0,4171.93548387,0,4140.64516129,0,4129.35483871,0,4178.38709677,0,4143.22580645,0,4188.38709677,0,4135.48387097,0,0,0,?
2018-01-26 08:37:47.995000,4144.19354839,0,4128.38709677,0,4152.58064516,0,4154.51612903,0,4134.19354839,0,4139.67741935,0,4163.22580645,0,4167.09677419,0,4166.77419355,0,4173.5483871,0,4172.58064516,0,4147.41935484,0,4184.19354839,0,4172.58064516,0,0,0,?
2018-01-26 08:37:48.004000,4149.67741935,0,4139.03225806,0,4150.96774194,0,4177.74193548,0,4138.70967742,0,4141.29032258,0,4167.41935484,0,4165.48387097,0,4172.25806452,0,4131.61290323,0,4188.70967742,0,4149.03225806,0,4193.22580645,0,4132.25806452,0,0,0,?
2018-01-26 08:37:48.010000,4153.22580645,0,4130.0,0,4160.32258065,0,4163.22580645,0,4142.25806452,0,4144.51612903,0,4167.09677419,0,4172.58064516,0,4152.90322581,0,4136.4516129,0,4194.19354839,0,4148.38709677,0,4197.09677419,0,4135.16129032,0,0,0,?
2018-01-26 08:37:48.018000,4147.41935484,0,4121.29032258,0,4167.74193548,0,4170.32258065,0,4178.38709677,0,4147.41935484,0,4168.06451613,0,4177.74193548,0,4170.0,0,4179.03225806,0,4178.70967742,0,4150.64516129,0,4184.19354839,0,4129.35483871,0,0,0,?
2018-01-26 08:37:48.025000,4166.77419355,0,4136.4516129,0,4136.77419355,0,4161.93548387,0,4130.32258065,0,4147.74193548,0,4165.48387097,0,4172.58064516,0,4160.0,0,4144.19354839,0,4185.80645161,0,4153.87096774,0,4191.61290323,0,4148.06451613,0,0,0,?
2018-01-26 08:37:48.035000,4141.61290323,0,4128.70967742,0,4153.22580645,0,4171.29032258,0,4153.22580645,0,4147.41935484,0,4165.16129032,0,4169.03225806,0,4160.96774194,0,4157.74193548,0,4181.93548387,0,4148.70967742,0,4203.22580645,0,4130.64516129,0,0,0,?
2018-01-26 08:37:48.042000,4152.25806452,0,4120.0,0,4153.5483871,0,4158.06451613,0,4143.87096774,0,4141.93548387,0,4167.74193548,0,4165.16129032,0,4168.38709677,0,4150.0,0,4170.96774194,0,4144.19354839,0,4197.09677419,0,4133.87096774,0,0,0,?
2018-01-26 08:37:48.051000,4156.77419355,0,4128.70967742,0,4148.38709677,0,4165.80645161,0,4136.12903226,0,4144.83870968,0,4178.06451613,0,4174.51612903,0,4169.35483871,0,4154.19354839,0,4182.58064516,0,4152.58064516,0,4191.61290323,0,4142.25806452,0,0,0,?
2018-01-26 08:37:48.058000,4138.70967742,0,4140.64516129,0,4175.48387097,0,4166.12903226,0,4134.51612903,0,4142.25806452,0,4175.16129032,0,4171.29032258,0,4131.61290323,0,4138.70967742,0,4177.41935484,0,4148.70967742,0,4187.41935484,0,4172.90322581,0,0,0,?
2018-01-26 08:37:48.067000,4165.80645161,0,4148.38709677,0,4141.93548387,0,4147.41935484,0,4178.38709677,0,4135.80645161,0,4162.58064516,0,4158.06451613,0,4177.74193548,0,4178.06451613,0,4164.51612903,0,4140.96774194,0,4195.48387097,0,4133.22580645,0,0,0,?
2018-01-26 08:37:48.074000,4141.93548387,0,4134.83870968,0,4138.06451613,0,4138.06451613,0,4138.70967742,0,4148.70967742,0,4160.96774194,0,4163.87096774,0,4132.90322581,0,4145.16129032,0,4167.41935484,0,4143.87096774,0,4204.51612903,0,4179.03225806,0,0,0,?
2018-01-26 08:37:48.082000,4147.09677419,0,4131.29032258,0,4138.06451613,0,4153.22580645,0,4147.09677419,0,4152.58064516,0,4166.77419355,0,4167.74193548,0,4163.87096774,0,4156.12903226,0,4171.29032258,0,4150.96774194,0,4203.87096774,0,4136.12903226,0,0,0,?
2018-01-26 08:37:48.091000,4167.74193548,0,4132.90322581,0,4143.87096774,0,4145.48387097,0,4151.93548387,0,4149.67741935,0,4176.77419355,0,4176.77419355,0,4139.35483871,0,4166.12903226,0,4177.41935484,0,4160.96774194,0,4199.67741935,0,4153.5483871,0,0,0,?
2018-01-26 08:37:48.098000,4138.38709677,0,4135.80645161,0,4135.16129032,0,4140.0,0,4157.09677419,0,4152.25806452,0,4176.12903226,0,4192.58064516,0,4194.83870968,0,4170.96774194,0,4186.12903226,0,4158.38709677,0,4193.87096774,0,4141.93548387,0,0,0,?
2018-01-26 08:37:48.107000,4148.38709677,0,4149.35483871,0,4198.38709677,0,4139.35483871,0,4157.09677419,0,4150.64516129,0,4172.25806452,0,4197.41935484,0,4166.77419355,0,4170.64516129,0,4197.41935484,0,4149.67741935,0,4202.58064516,0,4145.80645161,0,0,0,?
2018-01-26 08:37:48.113000,4140.32258065,0,4141.29032258,0,4180.0,0,4160.64516129,0,4153.22580645,0,4148.06451613,0,4182.58064516,0,4193.5483871,0,4186.77419355,0,4171.93548387,0,4188.70967742,0,4150.64516129,0,4205.80645161,0,4139.03225806,0,0,0,?
2018-01-26 08:37:48.121000,4148.70967742,0,4142.58064516,0,4149.67741935,0,4165.16129032,0,4146.77419355,0,4147.74193548,0,4175.80645161,0,4177.41935484,0,4156.77419355,0,4170.32258065,0,4171.29032258,0,4154.83870968,0,4198.38709677,0,4139.03225806,0,0,0,?
2018-01-26 08:37:48.127000,4167.74193548,0,4153.5483871,0,4174.51612903,0,4155.80645161,0,4168.70967742,0,4152.90322581,0,4170.0,0,4179.35483871,0,4195.80645161,0,4169.35483871,0,4173.87096774,0,4151.61290323,0,4194.51612903,0,4138.06451613,0,0,0,?
2018-01-26 08:37:48.139000,4144.19354839,0,4144.83870968,0,4146.12903226,0,4130.0,0,4171.93548387,0,4150.32258065,0,4174.19354839,0,4181.93548387,0,4187.41935484,0,4154.19354839,0,4170.96774194,0,4140.64516129,0,4186.4516129,0,4176.12903226,0,0,0,?
2018-01-26 08:37:48.144000,4154.83870968,0,4144.83870968,0,4154.51612903,0,4162.90322581,0,4135.48387097,0,4143.22580645,0,4165.80645161,0,4167.74193548,0,4130.0,0,4152.90322581,0,4173.87096774,0,4140.32258065,0,4187.09677419,0,4145.80645161,0,0,0,?
2018-01-26 08:37:48.152000,4144.83870968,0,4148.06451613,0,4153.87096774,0,4164.19354839,0,4138.06451613,0,4148.06451613,0,4167.09677419,0,4177.74193548,0,4152.25806452,0,4165.80645161,0,4177.74193548,0,4150.0,0,4196.12903226,0,4138.38709677,0,0,0,?
2018-01-26 08:37:48.160000,4149.35483871,0,4152.90322581,0,4172.25806452,0,4184.51612903,0,4156.12903226,0,4152.58064516,0,4172.90322581,0,4182.90322581,0,4168.38709677,0,4161.29032258,0,4170.96774194,0,4155.16129032,0,4204.83870968,0,4134.51612903,0,0,0,?
2018-01-26 08:37:48.168000,4166.4516129,0,4150.64516129,0,4140.32258065,0,4142.58064516,0,4151.93548387,0,4149.03225806,0,4166.12903226,0,4171.93548387,0,4160.64516129,0,4153.5483871,0,4175.16129032,0,4149.03225806,0,4203.22580645,0,4140.64516129,0,0,0,?
2018-01-26 08:37:48.176000,4138.38709677,0,4145.48387097,0,4145.80645161,0,4173.22580645,0,4141.29032258,0,4132.90322581,0,4157.74193548,0,4175.16129032,0,4168.38709677,0,4145.48387097,0,4177.09677419,0,4136.4516129,0,4182.25806452,0,4168.70967742,0,0,0,?
2018-01-26 08:37:48.189000,4152.90322581,0,4152.90322581,0,4151.93548387,0,4139.67741935,0,4130.96774194,0,4178.70967742,0,4156.77419355,0,4170.0,0,4158.06451613,0,4137.74193548,0,4163.5483871,0,4137.09677419,0,4183.87096774,0,4139.67741935,0,0,0,?
2018-01-26 08:37:48.193000,4145.80645161,0,4138.38709677,0,4132.25806452,0,4150.0,0,4129.35483871,0,4142.58064516,0,4158.70967742,0,4154.51612903,0,4128.06451613,0,4135.48387097,0,4149.03225806,0,4143.5483871,0,4197.09677419,0,4141.93548387,0,0,0,?
2018-01-26 08:37:48.202000,4139.35483871,0,4128.38709677,0,4167.74193548,0,4167.41935484,0,4173.87096774,0,4140.32258065,0,4147.74193548,0,4148.06451613,0,4144.19354839,0,4139.67741935,0,4155.80645161,0,4140.0,0,4194.51612903,0,4133.87096774,0,0,0,?
2018-01-26 08:37:48.209000,4161.93548387,0,4141.61290323,0,4171.93548387,0,4160.0,0,4176.4516129,0,4178.06451613,0,4147.74193548,0,4166.12903226,0,4180.64516129,0,4156.12903226,0,4169.03225806,0,4141.29032258,0,4197.41935484,0,4146.77419355,0,0,0,?
2018-01-26 08:37:48.215000,4145.16129032,0,4143.87096774,0,4133.5483871,0,4134.83870968,0,4141.29032258,0,4137.09677419,0,4164.83870968,0,4180.96774194,0,4166.12903226,0,4156.12903226,0,4157.74193548,0,4136.4516129,0,4194.19354839,0,4178.38709677,0,0,0,?
2018-01-26 08:37:48.224000,4160.32258065,0,4142.25806452,0,4153.87096774,0,4140.64516129,0,4141.93548387,0,4150.0,0,4170.32258065,0,4173.5483871,0,4153.22580645,0,4150.96774194,0,4160.0,0,4133.5483871,0,4195.16129032,0,4130.32258065,0,0,0,?
2018-01-26 08:37:48.231000,4152.58064516,0,4131.93548387,0,4150.0,0,4136.12903226,0,4134.19354839,0,4142.25806452,0,4172.25806452,0,4173.5483871,0,4143.22580645,0,4157.09677419,0,4170.0,0,4147.09677419,0,4202.58064516,0,4132.25806452,0,0,0,?
2018-01-26 08:37:48.239000,4143.87096774,0,4132.25806452,0,4169.67741935,0,4165.16129032,0,4174.83870968,0,4134.51612903,0,4168.38709677,0,4164.83870968,0,4141.93548387,0,4149.03225806,0,4160.96774194,0,4151.29032258,0,4200.96774194,0,4178.06451613,0,0,0,?
2018-01-26 08:37:48.247000,4171.93548387,0,4151.29032258,0,4150.0,0,4171.93548387,0,4138.06451613,0,4139.35483871,0,4160.64516129,0,4161.61290323,0,4173.5483871,0,4154.19354839,0,4153.22580645,0,4137.09677419,0,4201.29032258,0,4136.4516129,0,0,0,?
2018-01-26 08:37:48.257000,4145.48387097,0,4150.0,0,4184.19354839,0,4152.58064516,0,4150.0,0,4129.03225806,0,4154.51612903,0,4168.06451613,0,4163.22580645,0,4162.90322581,0,4148.06451613,0,4170.32258065,0,4192.58064516,0,4171.93548387,0,0,0,?
2018-01-26 08:37:48.263000,4149.35483871,0,4148.06451613,0,4160.32258065,0,4161.61290323,0,4130.32258065,0,4162.90322581,0,4148.70967742,0,4151.61290323,0,4174.19354839,0,4156.77419355,0,4155.16129032,0,4176.12903226,0,4190.0,0,4143.87096774,0,0,0,?
2018-01-26 08:37:48.271000,4155.16129032,0,4155.16129032,0,4175.16129032,0,4178.70967742,0,4147.74193548,0,4178.06451613,0,4152.58064516,0,4156.4516129,0,4149.35483871,0,4158.70967742,0,4157.41935484,0,4138.70967742,0,4200.32258065,0,4157.41935484,0,0,0,?
2018-01-26 08:37:48.284000,4147.09677419,0,4153.22580645,0,4201.29032258,0,4185.16129032,0,4173.5483871,0,4142.58064516,0,4157.09677419,0,4173.5483871,0,4138.70967742,0,4145.80645161,0,4147.41935484,0,4178.70967742,0,4201.61290323,0,4135.48387097,0,0,0,?
2018-01-26 08:37:48.300000,4161.93548387,0,4143.87096774,0,4169.67741935,0,4172.58064516,0,4176.4516129,0,4147.41935484,0,4167.74193548,0,4172.90322581,0,4160.0,0,4132.25806452,0,4150.64516129,0,4177.74193548,0,4198.38709677,0,4142.58064516,0,0,0,?
2018-01-26 08:37:48.302000,4141.61290323,0,4136.4516129,0,4178.70967742,0,4183.87096774,0,4187.09677419,0,4161.93548387,0,4179.03225806,0,4177.09677419,0,4179.03225806,0,4133.5483871,0,4145.80645161,0,4142.90322581,0,4190.0,0,4144.19354839,0,0,0,?
2018-01-26 08:37:48.311000,4160.32258065,0,4145.48387097,0,4135.48387097,0,4178.06451613,0,4166.4516129,0,4162.58064516,0,4175.80645161,0,4193.5483871,0,4169.35483871,0,4146.4516129,0,4144.19354839,0,4142.58064516,0,4191.29032258,0,4152.58064516,0,0,0,?
2018-01-26 08:37:48.313000,4163.87096774,0,4141.61290323,0,4174.83870968,0,4151.61290323,0,4138.38709677,0,4163.5483871,0,4182.58064516,0,4200.0,0,4190.0,0,4170.0,0,4155.16129032,0,4146.4516129,0,4205.80645161,0,4147.74193548,0,0,0,?
2018-01-26 08:37:48.337000,4138.06451613,0,4136.12903226,0,4180.32258065,0,4143.87096774,0,4142.25806452,0,4164.19354839,0,4183.87096774,0,4184.51612903,0,4179.67741935,0,4168.38709677,0,4152.90322581,0,4153.22580645,0,4209.67741935,0,4136.4516129,0,0,0,?
2018-01-26 08:37:48.340000,4161.93548387,0,4151.61290323,0,4160.0,0,4163.87096774,0,4162.25806452,0,4152.58064516,0,4170.64516129,0,4181.61290323,0,4183.87096774,0,4152.25806452,0,4143.22580645,0,4140.0,0,4205.16129032,0,4154.83870968,0,0,0,?
2018-01-26 08:37:48.344000,4148.38709677,0,4149.35483871,0,4159.35483871,0,4200.0,0,4172.58064516,0,4151.61290323,0,4174.51612903,0,4195.48387097,0,4196.77419355,0,4147.41935484,0,4140.96774194,0,4130.64516129,0,4193.22580645,0,4140.96774194,0,0,0,?
2018-01-26 08:37:48.349000,4153.22580645,0,4155.16129032,0,4173.87096774,0,4187.41935484,0,4167.41935484,0,4159.35483871,0,4176.4516129,0,4184.51612903,0,4163.5483871,0,4157.41935484,0,4150.0,0,4140.96774194,0,4193.22580645,0,4146.12903226,0,0,0,?
2018-01-26 08:37:48.360000,4158.70967742,0,4164.83870968,0,4186.12903226,0,4152.25806452,0,4168.38709677,0,4160.32258065,0,4171.29032258,0,4176.12903226,0,4164.51612903,0,4164.51612903,0,4155.80645161,0,4141.29032258,0,4206.77419355,0,4153.22580645,0,0,0,?
2018-01-26 08:37:48.365000,4143.87096774,0,4155.16129032,0,4181.29032258,0,4143.5483871,0,4158.38709677,0,4151.29032258,0,4164.19354839,0,4174.51612903,0,4159.03225806,0,4141.93548387,0,4139.03225806,0,4177.74193548,0,4199.67741935,0,4132.25806452,0,0,0,?
2018-01-26 08:37:48.375000,4170.64516129,0,4146.77419355,0,4172.90322581,0,4151.93548387,0,4154.51612903,0,4154.19354839,0,4153.87096774,0,4164.83870968,0,4172.58064516,0,4133.5483871,0,4135.48387097,0,4132.58064516,0,4191.61290323,0,4145.80645161,0,0,0,?
2018-01-26 08:37:48.381000,4153.5483871,0,4135.16129032,0,4158.70967742,0,4167.09677419,0,4172.90322581,0,4161.93548387,0,4167.74193548,0,4174.83870968,0,4160.32258065,0,4136.4516129,0,4137.41935484,0,4131.93548387,0,4194.51612903,0,4141.29032258,0,0,0,?
2018-01-26 08:37:48.393000,4150.0,0,4140.32258065,0,4130.32258065,0,4165.16129032,0,4163.5483871,0,4149.35483871,0,4175.16129032,0,4177.74193548,0,4159.67741935,0,4178.06451613,0,4170.64516129,0,4174.51612903,0,4200.0,0,4132.58064516,0,0,0,?
2018-01-26 08:37:48.398000,4164.51612903,0,4147.09677419,0,4146.12903226,0,4157.74193548,0,4153.22580645,0,4136.12903226,0,4166.4516129,0,4171.93548387,0,4161.29032258,0,4142.90322581,0,4175.16129032,0,4129.35483871,0,4204.83870968,0,4135.80645161,0,0,0,?
2018-01-26 08:37:48.408000,4151.29032258,0,4139.03225806,0,4184.51612903,0,4177.74193548,0,4164.51612903,0,4145.80645161,0,4172.58064516,0,4179.67741935,0,4207.09677419,0,4160.96774194,0,4146.77419355,0,4177.41935484,0,4194.83870968,0,4130.96774194,0,0,0,?
2018-01-26 08:37:48.413000,4170.32258065,0,4150.32258065,0,4175.16129032,0,4131.61290323,0,4171.93548387,0,4158.06451613,0,4179.35483871,0,4186.12903226,0,4168.06451613,0,4164.83870968,0,4149.67741935,0,4174.83870968,0,4196.4516129,0,4145.80645161,0,0,0,?
2018-01-26 08:37:48.426000,4151.93548387,0,4154.51612903,0,4170.64516129,0,4190.0,0,4178.06451613,0,4155.48387097,0,4170.32258065,0,4188.70967742,0,4192.90322581,0,4173.22580645,0,4138.06451613,0,4129.67741935,0,4204.19354839,0,4140.96774194,0,0,0,?
2018-01-26 08:37:48.427000,4150.32258065,0,4156.77419355,0,4192.90322581,0,4194.83870968,0,4179.35483871,0,4150.64516129,0,4168.70967742,0,4184.51612903,0,4182.58064516,0,4181.93548387,0,4139.67741935,0,4133.22580645,0,4202.25806452,0,4149.67741935,0,0,0,?
2018-01-26 08:37:48.438000,4167.74193548,0,4164.51612903,0,4205.48387097,0,4187.74193548,0,4186.77419355,0,4153.22580645,0,4185.16129032,0,4192.58064516,0,4171.29032258,0,4184.83870968,0,4149.67741935,0,4134.51612903,0,4202.25806452,0,4156.77419355,0,0,0,?
2018-01-26 08:37:48.445000,4148.06451613,0,4155.16129032,0,4186.77419355,0,4196.77419355,0,4174.83870968,0,4148.38709677,0,4165.80645161,0,4186.4516129,0,4162.58064516,0,4159.67741935,0,4137.09677419,0,4130.96774194,0,4200.96774194,0,4134.19354839,0,0,0,?
2018-01-26 08:37:48.466000,4165.48387097,0,4154.19354839,0,4168.06451613,0,4183.5483871,0,4153.5483871,0,4144.19354839,0,4143.22580645,0,4163.22580645,0,4155.16129032,0,4140.0,0,4129.67741935,0,4167.09677419,0,4200.96774194,0,4147.74193548,0,0,0,?
2018-01-26 08:37:48.466000,4153.87096774,0,4156.4516129,0,4179.35483871,0,4169.67741935,0,4170.0,0,4156.77419355,0,4158.06451613,0,4168.38709677,0,4163.22580645,0,4142.25806452,0,4132.90322581,0,4163.87096774,0,4193.22580645,0,4136.12903226,0,0,0,?
2018-01-26 08:37:48.472000,4151.29032258,0,4154.19354839,0,4162.90322581,0,4153.87096774,0,4170.32258065,0,4150.32258065,0,4153.87096774,0,4170.32258065,0,4170.96774194,0,4179.03225806,0,4140.64516129,0,4158.38709677,0,4194.19354839,0,4168.06451613,0,0,0,?
2018-01-26 08:37:48.475000,4172.25806452,0,4142.25806452,0,4139.35483871,0,4156.4516129,0,4160.0,0,4136.12903226,0,4147.74193548,0,4167.09677419,0,4178.06451613,0,4174.83870968,0,4153.22580645,0,4152.25806452,0,4204.51612903,0,4131.29032258,0,0,0,?
2018-01-26 08:37:48.490000,4140.0,0,4127.74193548,0,4149.67741935,0,4180.32258065,0,4167.74193548,0,4145.48387097,0,4155.16129032,0,4172.90322581,0,4178.06451613,0,4137.74193548,0,4145.80645161,0,4167.09677419,0,4193.5483871,0,4174.83870968,0,0,0,?
2018-01-26 08:37:48.496000,4155.16129032,0,4130.0,0,4166.4516129,0,4164.19354839,0,4159.35483871,0,4151.61290323,0,4152.90322581,0,4171.61290323,0,4170.32258065,0,4150.96774194,0,4152.25806452,0,4176.4516129,0,4193.22580645,0,4135.80645161,0,0,0,?
2018-01-26 08:37:48.504000,4159.35483871,0,4129.03225806,0,4184.51612903,0,4142.58064516,0,4160.0,0,4150.32258065,0,4155.80645161,0,4176.12903226,0,4172.58064516,0,4164.19354839,0,4175.48387097,0,4169.67741935,0,4205.80645161,0,4137.74193548,0,0,0,?
2018-01-26 08:37:48.510000,4146.77419355,0,4137.09677419,0,4169.35483871,0,4141.93548387,0,4157.74193548,0,4147.41935484,0,4151.29032258,0,4167.74193548,0,4129.03225806,0,4159.35483871,0,4174.19354839,0,4165.16129032,0,4198.70967742,0,4133.5483871,0,0,0,?
2018-01-26 08:37:48.524000,4160.64516129,0,4142.58064516,0,4151.61290323,0,4139.67741935,0,4142.58064516,0,4146.12903226,0,4148.70967742,0,4163.5483871,0,4147.09677419,0,4153.22580645,0,4170.32258065,0,4171.29032258,0,4189.67741935,0,4134.19354839,0,0,0,?
2018-01-26 08:37:48.534000,4139.03225806,0,4133.22580645,0,4169.03225806,0,4158.38709677,0,4151.93548387,0,4151.93548387,0,4167.09677419,0,4180.64516129,0,4203.87096774,0,4155.80645161,0,4178.70967742,0,4173.87096774,0,4191.29032258,0,4160.96774194,0,0,0,?
2018-01-26 08:37:48.535000,4154.83870968,0,4149.35483871,0,4180.96774194,0,4179.03225806,0,4167.09677419,0,4154.83870968,0,4166.77419355,0,4171.93548387,0,4169.03225806,0,4160.96774194,0,4189.35483871,0,4166.12903226,0,4196.77419355,0,4132.25806452,0,0,0,?
2018-01-26 08:37:48.539000,4160.96774194,0,4158.38709677,0,4181.29032258,0,4167.41935484,0,4167.09677419,0,4153.87096774,0,4147.41935484,0,4159.35483871,0,4177.41935484,0,4165.16129032,0,4189.03225806,0,4166.4516129,0,4196.4516129,0,4145.48387097,0,0,0,?
2018-01-26 08:37:48.551000,4153.22580645,0,4152.25806452,0,4170.96774194,0,4140.96774194,0,4159.35483871,0,4142.90322581,0,4145.80645161,0,4170.0,0,4162.90322581,0,4163.5483871,0,4179.35483871,0,4170.32258065,0,4191.61290323,0,4138.38709677,0,0,0,?
2018-01-26 08:37:48.554000,4168.06451613,0,4158.70967742,0,4167.09677419,0,4163.5483871,0,4167.09677419,0,4147.41935484,0,4155.48387097,0,4172.25806452,0,4185.48387097,0,4166.77419355,0,4175.80645161,0,4167.09677419,0,4202.90322581,0,4149.03225806,0,0,0,?
2018-01-26 08:37:48.564000,4147.09677419,0,4156.4516129,0,4170.64516129,0,4203.87096774,0,4175.16129032,0,4156.12903226,0,4149.03225806,0,4160.0,0,4176.77419355,0,4155.48387097,0,4174.51612903,0,4159.35483871,0,4203.22580645,0,4179.03225806,0,0,0,?
2018-01-26 08:37:48.570000,4167.41935484,0,4162.90322581,0,4167.74193548,0,4194.19354839,0,4167.09677419,0,4170.0,0,4141.93548387,0,4166.12903226,0,4198.70967742,0,4149.35483871,0,4183.87096774,0,4171.61290323,0,4197.74193548,0,4138.06451613,0,0,0,?
2018-01-26 08:37:48.581000,4167.74193548,0,4167.41935484,0,4198.70967742,0,4186.77419355,0,4182.90322581,0,4130.0,0,4170.96774194,0,4202.58064516,0,4192.58064516,0,4176.12903226,0,4187.09677419,0,4132.90322581,0,4204.83870968,0,4151.93548387,0,0,0,?
2018-01-26 08:37:48.587000,4138.38709677,0,4153.22580645,0,4197.09677419,0,4164.83870968,0,4183.5483871,0,4132.90322581,0,4188.70967742,0,4163.5483871,0,4175.48387097,0,4174.83870968,0,4177.74193548,0,4175.48387097,0,4196.77419355,0,4140.32258065,0,0,0,?
2018-01-26 08:37:48.603000,4155.80645161,0,4141.93548387,0,4132.58064516,0,4145.48387097,0,4165.80645161,0,4146.77419355,0,4167.74193548,0,4194.19354839,0,4170.32258065,0,4164.19354839,0,4188.70967742,0,4177.41935484,0,4195.16129032,0,4155.16129032,0,0,0,?
2018-01-26 08:37:48.604000,4145.48387097,0,4140.96774194,0,4173.5483871,0,4184.83870968,0,4174.83870968,0,4130.64516129,0,4163.22580645,0,4185.16129032,0,4158.06451613,0,4175.80645161,0,4192.25806452,0,4131.61290323,0,4205.16129032,0,4150.0,0,0,0,?
2018-01-26 08:37:48.613000,4152.58064516,0,4156.12903226,0,4182.58064516,0,4190.32258065,0,4180.0,0,4131.29032258,0,4174.51612903,0,4183.87096774,0,4195.16129032,0,4181.61290323,0,4179.35483871,0,4172.25806452,0,4206.4516129,0,4143.22580645,0,0,0,?
2018-01-26 08:37:48.617000,4155.16129032,0,4153.87096774,0,4198.38709677,0,4144.19354839,0,4170.0,0,4151.61290323,0,4164.51612903,0,4182.90322581,0,4194.51612903,0,4176.12903226,0,4179.35483871,0,4175.16129032,0,4204.83870968,0,4134.19354839,0,0,0,?
2018-01-26 08:37:48.628000,4145.16129032,0,4154.51612903,0,4170.64516129,0,4132.58064516,0,4160.64516129,0,4140.0,0,4146.4516129,0,4170.96774194,0,4167.41935484,0,4164.19354839,0,4176.12903226,0,4176.77419355,0,4205.48387097,0,4135.48387097,0,0,0,?
2018-01-26 08:37:48.634000,4175.48387097,0,4163.87096774,0,4175.16129032,0,4171.61290323,0,4160.64516129,0,4127.09677419,0,4149.35483871,0,4161.61290323,0,4145.16129032,0,4164.51612903,0,4178.70967742,0,4159.67741935,0,4205.16129032,0,4161.93548387,0,0,0,?
2018-01-26 08:37:48.644000,4152.90322581,0,4142.25806452,0,4178.70967742,0,4193.22580645,0,4166.77419355,0,4130.32258065,0,4155.48387097,0,4170.96774194,0,4157.41935484,0,4164.51612903,0,4188.38709677,0,4159.35483871,0,4194.19354839,0,4140.64516129,0,0,0,?
2018-01-26 08:37:48.650000,4148.06451613,0,4136.77419355,0,4160.96774194,0,4155.16129032,0,4159.03225806,0,4127.41935484,0,4145.16129032,0,4172.25806452,0,4200.96774194,0,4164.19354839,0,4179.03225806,0,4168.06451613,0,4198.38709677,0,4141.29032258,0,0,0,?
2018-01-26 08:37:48.658000,4160.64516129,0,4146.4516129,0,4158.38709677,0,4169.03225806,0,4155.80645161,0,4130.0,0,4152.25806452,0,4176.4516129,0,4206.12903226,0,4163.5483871,0,4166.12903226,0,4168.06451613,0,4201.93548387,0,4156.12903226,0,0,0,?
2018-01-26 08:37:48.664000,4139.35483871,0,4143.5483871,0,4148.06451613,0,4165.48387097,0,4146.4516129,0,4136.77419355,0,4159.67741935,0,4174.19354839,0,4164.19354839,0,4137.09677419,0,4168.38709677,0,4165.48387097,0,4186.4516129,0,4136.77419355,0,0,0,?
2018-01-26 08:37:48.676000,4153.22580645,0,4144.19354839,0,4146.4516129,0,4147.41935484,0,4134.51612903,0,4129.67741935,0,4154.83870968,0,4169.03225806,0,4143.5483871,0,4135.80645161,0,4175.48387097,0,4158.70967742,0,4199.67741935,0,4142.90322581,0,0,0,?
2018-01-26 08:37:48.680000,4150.0,0,4143.87096774,0,4178.70967742,0,4176.12903226,0,4142.90322581,0,4128.06451613,0,4160.0,0,4183.5483871,0,4200.64516129,0,4163.22580645,0,4163.22580645,0,4161.93548387,0,4209.67741935,0,4134.83870968,0,0,0,?
2018-01-26 08:37:48.690000,4164.51612903,0,4154.83870968,0,4183.87096774,0,4176.12903226,0,4135.80645161,0,4127.41935484,0,4155.80645161,0,4172.90322581,0,4205.48387097,0,4170.0,0,4157.74193548,0,4171.93548387,0,4198.06451613,0,4142.58064516,0,0,0,?
2018-01-26 08:37:48.695000,4169.67741935,0,4158.06451613,0,4172.25806452,0,4150.64516129,0,4131.29032258,0,4120.96774194,0,4150.0,0,4155.48387097,0,4177.74193548,0,4173.22580645,0,4180.96774194,0,4179.03225806,0,4200.0,0,4153.5483871,0,0,0,?
2018-01-26 08:37:48.709000,4141.61290323,0,4145.48387097,0,4175.48387097,0,4146.12903226,0,4138.70967742,0,4112.90322581,0,4149.67741935,0,4156.4516129,0,4185.80645161,0,4169.67741935,0,4182.25806452,0,4171.29032258,0,4201.29032258,0,4179.03225806,0,0,0,?
2018-01-26 08:37:48.710000,4171.93548387,0,4144.19354839,0,4162.25806452,0,4175.16129032,0,4133.22580645,0,4102.25806452,0,4140.96774194,0,4154.83870968,0,4170.0,0,4161.93548387,0,4168.06451613,0,4164.51612903,0,4200.96774194,0,4146.4516129,0,0,0,?
2018-01-26 08:37:48.722000,4156.4516129,0,4138.06451613,0,4147.74193548,0,4170.0,0,4137.41935484,0,4112.25806452,0,4137.74193548,0,4147.41935484,0,4159.67741935,0,4160.96774194,0,4168.06451613,0,4171.61290323,0,4197.09677419,0,4156.12903226,0,0,0,?
2018-01-26 08:37:48.726000,4142.58064516,0,4137.41935484,0,4133.5483871,0,4178.38709677,0,4143.22580645,0,4122.58064516,0,4134.51612903,0,4130.64516129,0,4160.0,0,4150.0,0,4171.61290323,0,4166.77419355,0,4195.80645161,0,4133.5483871,0,0,0,?
2018-01-26 08:37:48.740000,4166.77419355,0,4136.12903226,0,4133.5483871,0,4164.19354839,0,4149.35483871,0,4121.29032258,0,4138.38709677,0,4137.74193548,0,4151.61290323,0,4148.38709677,0,4162.90322581,0,4166.4516129,0,4204.19354839,0,4163.22580645,0,0,0,?
2018-01-26 08:37:48.743000,4145.80645161,0,4113.22580645,0,4130.0,0,4131.29032258,0,4138.06451613,0,4122.25806452,0,4145.80645161,0,4152.58064516,0,4174.51612903,0,4140.96774194,0,4143.87096774,0,4165.48387097,0,4195.16129032,0,4153.22580645,0,0,0,?
2018-01-26 08:37:48.755000,4156.4516129,0,4115.48387097,0,4168.06451613,0,4178.70967742,0,4169.67741935,0,4131.61290323,0,4142.90322581,0,4138.06451613,0,4165.80645161,0,4173.5483871,0,4151.29032258,0,4159.35483871,0,4191.29032258,0,4130.0,0,0,0,?
2018-01-26 08:37:48.759000,4156.77419355,0,4128.38709677,0,4137.41935484,0,4132.90322581,0,4139.03225806,0,4140.96774194,0,4144.83870968,0,4136.77419355,0,4151.61290323,0,4174.51612903,0,4157.09677419,0,4162.58064516,0,4200.96774194,0,4174.19354839,0,0,0,?
2018-01-26 08:37:48.773000,4156.4516129,0,4131.29032258,0,4146.77419355,0,4131.93548387,0,4156.12903226,0,4133.87096774,0,4146.12903226,0,4151.61290323,0,4156.12903226,0,4140.32258065,0,4146.4516129,0,4161.29032258,0,4199.35483871,0,4170.64516129,0,0,0,?
2018-01-26 08:37:48.776000,4167.74193548,0,4135.16129032,0,4150.64516129,0,4132.25806452,0,4156.4516129,0,4128.70967742,0,4151.61290323,0,4164.51612903,0,4150.0,0,4156.12903226,0,4150.32258065,0,4164.19354839,0,4201.61290323,0,4150.32258065,0,0,0,?
2018-01-26 08:37:48.786000,4139.35483871,0,4136.77419355,0,4160.32258065,0,4155.16129032,0,4141.29032258,0,4121.93548387,0,4151.29032258,0,4156.12903226,0,4164.19354839,0,4150.96774194,0,4149.35483871,0,4167.09677419,0,4203.5483871,0,4146.12903226,0,0,0,?
2018-01-26 08:37:48.790000,4158.70967742,0,4144.83870968,0,4176.4516129,0,4162.58064516,0,4165.16129032,0,4110.64516129,0,4129.67741935,0,4132.90322581,0,4152.25806452,0,4148.38709677,0,4146.77419355,0,4158.70967742,0,4202.25806452,0,4150.64516129,0,0,0,?
2018-01-26 08:37:48.804000,4152.58064516,0,4140.32258065,0,4182.90322581,0,4146.12903226,0,4133.87096774,0,4116.12903226,0,4177.41935484,0,4139.67741935,0,4154.83870968,0,4151.61290323,0,4158.06451613,0,4156.4516129,0,4205.16129032,0,4140.0,0,0,0,?
2018-01-26 08:37:48.808000,4133.5483871,0,4132.90322581,0,4133.22580645,0,4177.41935484,0,4146.4516129,0,4121.93548387,0,4136.4516129,0,4145.48387097,0,4162.25806452,0,4140.64516129,0,4165.16129032,0,4164.83870968,0,4207.74193548,0,4134.19354839,0,0,0,?
2018-01-26 08:37:48.816000,4160.32258065,0,4125.48387097,0,4169.67741935,0,4136.4516129,0,4164.51612903,0,4113.5483871,0,4174.19354839,0,4174.83870968,0,4167.41935484,0,4143.22580645,0,4155.48387097,0,4164.51612903,0,4197.09677419,0,4159.03225806,0,0,0,?
2018-01-26 08:37:48.823000,4146.77419355,0,4115.48387097,0,4154.51612903,0,4145.80645161,0,4148.70967742,0,4107.41935484,0,4159.67741935,0,4166.77419355,0,4130.0,0,4141.29032258,0,4141.29032258,0,4147.74193548,0,4179.03225806,0,4145.80645161,0,0,0,?
2018-01-26 08:37:48.836000,4158.06451613,0,4127.41935484,0,4152.58064516,0,4165.16129032,0,4166.12903226,0,4115.48387097,0,4166.12903226,0,4173.5483871,0,4168.38709677,0,4176.4516129,0,4147.09677419,0,4147.09677419,0,4190.0,0,4141.29032258,0,0,0,?
2018-01-26 08:37:48.841000,4158.70967742,0,4130.0,0,4140.96774194,0,4148.38709677,0,4131.29032258,0,4127.09677419,0,4132.25806452,0,4177.41935484,0,4153.22580645,0,4131.29032258,0,4150.0,0,4163.5483871,0,4203.22580645,0,4140.96774194,0,0,0,?
2018-01-26 08:37:48.851000,4144.83870968,0,4125.80645161,0,4146.12903226,0,4158.70967742,0,4161.29032258,0,4118.06451613,0,4131.29032258,0,4171.93548387,0,4160.96774194,0,4130.0,0,4137.74193548,0,4160.0,0,4195.80645161,0,4141.29032258,0,0,0,?
2018-01-26 08:37:48.854000,4163.22580645,0,4137.41935484,0,4152.90322581,0,4177.41935484,0,4155.80645161,0,4111.93548387,0,4133.22580645,0,4171.93548387,0,4141.29032258,0,4134.51612903,0,4140.64516129,0,4152.90322581,0,4195.48387097,0,4153.5483871,0,0,0,?
2018-01-26 08:37:48.866000,4138.38709677,0,4144.19354839,0,4158.70967742,0,4139.03225806,0,4135.80645161,0,4122.90322581,0,4147.41935484,0,4136.77419355,0,4177.74193548,0,4157.41935484,0,4142.58064516,0,4161.61290323,0,4190.64516129,0,4132.25806452,0,0,0,?
2018-01-26 08:37:48.869000,4147.74193548,0,4152.90322581,0,4170.64516129,0,4173.22580645,0,4141.29032258,0,4126.77419355,0,4148.38709677,0,4144.83870968,0,4151.29032258,0,4164.51612903,0,4148.06451613,0,4167.09677419,0,4191.93548387,0,4145.80645161,0,0,0,?
2018-01-26 08:37:48.877000,4154.83870968,0,4142.25806452,0,4176.12903226,0,4179.03225806,0,4138.06451613,0,4127.41935484,0,4144.51612903,0,4142.25806452,0,4167.09677419,0,4145.80645161,0,4152.25806452,0,4164.19354839,0,4200.96774194,0,4152.58064516,0,0,0,?
2018-01-26 08:37:48.884000,4135.48387097,0,4129.03225806,0,4151.93548387,0,4170.0,0,4155.16129032,0,4147.09677419,0,4144.83870968,0,4138.70967742,0,4130.96774194,0,4176.12903226,0,4177.41935484,0,4156.77419355,0,4199.03225806,0,4132.58064516,0,0,0,?
2018-01-26 08:37:48.897000,4159.03225806,0,4146.12903226,0,4135.48387097,0,4185.16129032,0,4184.19354839,0,4130.96774194,0,4162.25806452,0,4170.0,0,4142.58064516,0,4147.09677419,0,4172.58064516,0,4158.70967742,0,4202.25806452,0,4151.93548387,0,0,0,?
2018-01-26 08:37:48.908000,4151.61290323,0,4148.06451613,0,4151.61290323,0,4154.19354839,0,4195.48387097,0,4137.74193548,0,4184.51612903,0,4211.29032258,0,4206.77419355,0,4172.25806452,0,4141.61290323,0,4161.93548387,0,4200.32258065,0,4143.5483871,0,0,0,?
2018-01-26 08:37:48.913000,4162.58064516,0,4150.0,0,4166.4516129,0,4129.03225806,0,4161.61290323,0,4165.16129032,0,4171.29032258,0,4195.80645161,0,4206.12903226,0,4172.58064516,0,4145.16129032,0,4163.22580645,0,4196.4516129,0,4129.35483871,0,0,0,?
2018-01-26 08:37:48.916000,4164.19354839,0,4162.25806452,0,4170.96774194,0,4156.4516129,0,4144.19354839,0,4154.51612903,0,4157.74193548,0,4169.35483871,0,4181.61290323,0,4180.96774194,0,4143.87096774,0,4172.90322581,0,4207.41935484,0,4132.58064516,0,0,0,?
2018-01-26 08:37:48.929000,4145.16129032,0,4152.58064516,0,4167.74193548,0,4172.90322581,0,4160.64516129,0,4156.12903226,0,4161.61290323,0,4161.29032258,0,4187.74193548,0,4177.41935484,0,4137.41935484,0,4169.03225806,0,4203.5483871,0,4136.12903226,0,0,0,?
2018-01-26 08:37:48.933000,4173.87096774,0,4151.61290323,0,4166.12903226,0,4144.83870968,0,4161.29032258,0,4156.77419355,0,4159.67741935,0,4157.09677419,0,4183.22580645,0,4163.5483871,0,4134.19354839,0,4159.03225806,0,4200.0,0,4156.4516129,0,0,0,?
2018-01-26 08:37:48.943000,4160.96774194,0,4171.29032258,0,4179.67741935,0,4129.03225806,0,4139.35483871,0,4149.03225806,0,4156.12903226,0,4163.5483871,0,4161.61290323,0,4155.48387097,0,4137.09677419,0,4161.93548387,0,4207.41935484,0,4149.67741935,0,0,0,?
2018-01-26 08:37:48.949000,4157.41935484,0,4133.87096774,0,4196.12903226,0,4137.09677419,0,4168.70967742,0,4127.41935484,0,4146.12903226,0,4150.32258065,0,4179.35483871,0,4158.38709677,0,4147.09677419,0,4165.16129032,0,4204.51612903,0,4156.12903226,0,0,0,?
2018-01-26 08:37:48.959000,4160.32258065,0,4168.06451613,0,4178.38709677,0,4178.70967742,0,4134.83870968,0,4126.4516129,0,4138.70967742,0,4138.70967742,0,4188.38709677,0,4164.83870968,0,4153.5483871,0,4170.64516129,0,4201.93548387,0,4160.32258065,0,0,0,?
2018-01-26 08:37:48.964000,4142.25806452,0,4157.74193548,0,4182.90322581,0,4176.12903226,0,4150.32258065,0,4145.80645161,0,4147.74193548,0,4159.35483871,0,4172.90322581,0,4157.74193548,0,4132.25806452,0,4169.35483871,0,4204.19354839,0,4147.41935484,0,0,0,?
2018-01-26 08:37:48.974000,4171.61290323,0,4160.96774194,0,4180.0,0,4154.83870968,0,4137.09677419,0,4141.61290323,0,4160.64516129,0,4176.77419355,0,4179.03225806,0,4163.87096774,0,4175.48387097,0,4158.70967742,0,4161.61290323,0,4160.32258065,0,0,0,?
2018-01-26 08:37:48.980000,4152.58064516,0,4140.32258065,0,4156.12903226,0,4155.16129032,0,4130.0,0,4125.80645161,0,4155.48387097,0,4165.80645161,0,4185.80645161,0,4161.61290323,0,4133.5483871,0,4156.12903226,0,4203.87096774,0,4141.93548387,0,0,0,?
2018-01-26 08:37:48.993000,4142.25806452,0,4137.41935484,0,4180.64516129,0,4135.48387097,0,4165.16129032,0,4124.51612903,0,4137.41935484,0,4131.61290323,0,4144.19354839,0,4173.87096774,0,4173.5483871,0,4158.70967742,0,4190.0,0,4141.29032258,0,0,0,?
2018-01-26 08:37:48.996000,4162.90322581,0,4150.0,0,4177.41935484,0,4131.29032258,0,4166.4516129,0,4141.29032258,0,4141.61290323,0,4174.83870968,0,4171.93548387,0,4167.41935484,0,4160.64516129,0,4159.67741935,0,4196.4516129,0,4158.06451613,0,0,0,?
2018-01-26 08:37:49.009000,4147.41935484,0,4150.32258065,0,4154.51612903,0,4138.06451613,0,4140.96774194,0,4154.83870968,0,4156.4516129,0,4150.96774194,0,4154.51612903,0,4149.67741935,0,4162.58064516,0,4158.38709677,0,4205.16129032,0,4137.09677419,0,0,0,?
2018-01-26 08:37:49.011000,4165.16129032,0,4163.5483871,0,4173.5483871,0,4140.64516129,0,4135.80645161,0,4151.29032258,0,4152.58064516,0,4159.35483871,0,4182.58064516,0,4167.41935484,0,4174.19354839,0,4157.74193548,0,4211.29032258,0,4148.38709677,0,0,0,?
2018-01-26 08:37:49.026000,4154.83870968,0,4165.48387097,0,4199.03225806,0,4140.32258065,0,4133.5483871,0,4154.51612903,0,4152.58064516,0,4162.58064516,0,4186.77419355,0,4156.4516129,0,4177.74193548,0,4154.83870968,0,4196.12903226,0,4149.35483871,0,0,0,?
2018-01-26 08:37:49.027000,4147.74193548,0,4164.51612903,0,4188.06451613,0,4151.29032258,0,4152.58064516,0,4164.83870968,0,4162.90322581,0,4167.41935484,0,4172.25806452,0,4145.80645161,0,4133.87096774,0,4160.96774194,0,4190.32258065,0,4140.64516129,0,0,0,?
2018-01-26 08:37:49.037000,4168.38709677,0,4167.74193548,0,4197.74193548,0,4185.80645161,0,4169.35483871,0,4160.0,0,4163.87096774,0,4171.29032258,0,4188.70967742,0,4162.58064516,0,4140.96774194,0,4175.80645161,0,4208.06451613,0,4152.58064516,0,0,0,?
2018-01-26 08:37:49.044000,4154.83870968,0,4163.5483871,0,4169.03225806,0,4183.5483871,0,4163.5483871,0,4152.25806452,0,4155.48387097,0,4173.22580645,0,4207.41935484,0,4165.48387097,0,4175.16129032,0,4163.5483871,0,4196.77419355,0,4148.06451613,0,0,0,?
2018-01-26 08:37:49.056000,4172.25806452,0,4171.29032258,0,4200.96774194,0,4154.51612903,0,4162.58064516,0,4160.96774194,0,4151.29032258,0,4169.35483871,0,4178.06451613,0,4154.19354839,0,4176.12903226,0,4152.90322581,0,4190.32258065,0,4153.22580645,0,0,0,?
2018-01-26 08:37:49.059000,4161.29032258,0,4168.06451613,0,4180.32258065,0,4190.64516129,0,4188.38709677,0,4174.83870968,0,4162.25806452,0,4179.35483871,0,4176.4516129,0,4164.51612903,0,4142.25806452,0,4166.4516129,0,4209.35483871,0,4140.96774194,0,0,0,?
2018-01-26 08:37:49.068000,4149.35483871,0,4164.83870968,0,4179.03225806,0,4161.29032258,0,4184.51612903,0,4170.0,0,4160.0,0,4171.93548387,0,4180.64516129,0,4170.96774194,0,4141.93548387,0,4168.38709677,0,4210.0,0,4136.77419355,0,0,0,?
2018-01-26 08:37:49.074000,4171.29032258,0,4172.90322581,0,4197.41935484,0,4172.90322581,0,4169.03225806,0,4160.96774194,0,4152.25806452,0,4162.58064516,0,4185.80645161,0,4171.61290323,0,4147.74193548,0,4167.74193548,0,4190.64516129,0,4152.25806452,0,0,0,?
2018-01-26 08:37:49.087000,4151.93548387,0,4168.06451613,0,4198.70967742,0,4129.35483871,0,4164.19354839,0,4160.0,0,4157.09677419,0,4165.48387097,0,4198.38709677,0,4162.58064516,0,4155.16129032,0,4167.41935484,0,4185.80645161,0,4134.19354839,0,0,0,?
2018-01-26 08:37:49.091000,4163.22580645,0,4170.0,0,4190.96774194,0,4129.03225806,0,4155.16129032,0,4173.5483871,0,4157.74193548,0,4158.06451613,0,4179.67741935,0,4154.19354839,0,4161.29032258,0,4157.09677419,0,4202.58064516,0,4142.58064516,0,0,0,?
2018-01-26 08:37:49.102000,4154.19354839,0,4168.38709677,0,4170.32258065,0,4165.16129032,0,4169.03225806,0,4142.90322581,0,4167.09677419,0,4163.87096774,0,4185.80645161,0,4158.70967742,0,4170.32258065,0,4158.06451613,0,4204.19354839,0,4146.12903226,0,0,0,?
2018-01-26 08:37:49.107000,4140.96774194,0,4164.83870968,0,4191.29032258,0,4159.03225806,0,4166.77419355,0,4129.35483871,0,4167.41935484,0,4161.29032258,0,4147.41935484,0,4143.5483871,0,4163.87096774,0,4161.93548387,0,4198.38709677,0,4141.93548387,0,0,0,?
2018-01-26 08:37:49.119000,4168.06451613,0,4168.70967742,0,4136.12903226,0,4156.12903226,0,4146.12903226,0,4150.96774194,0,4158.38709677,0,4151.61290323,0,4141.93548387,0,4134.51612903,0,4163.22580645,0,4154.51612903,0,4204.51612903,0,4154.51612903,0,0,0,?
2018-01-26 08:37:49.124000,4140.96774194,0,4167.41935484,0,4161.29032258,0,4177.41935484,0,4146.77419355,0,4147.74193548,0,4157.74193548,0,4152.25806452,0,4140.64516129,0,4134.19354839,0,4167.74193548,0,4149.67741935,0,4191.61290323,0,4136.77419355,0,0,0,?
2018-01-26 08:37:49.134000,4151.93548387,0,4177.41935484,0,4203.87096774,0,4153.22580645,0,4151.93548387,0,4160.64516129,0,4152.58064516,0,4149.35483871,0,4181.61290323,0,4176.77419355,0,4170.0,0,4154.83870968,0,4183.5483871,0,4149.35483871,0,0,0,?
2018-01-26 08:37:49.138000,4164.19354839,0,4178.38709677,0,4167.74193548,0,4144.19354839,0,4167.74193548,0,4167.41935484,0,4153.5483871,0,4158.70967742,0,4148.06451613,0,4147.09677419,0,4177.09677419,0,4162.25806452,0,4204.19354839,0,4160.0,0,0,0,?
2018-01-26 08:37:49.150000,4144.83870968,0,4129.03225806,0,4161.61290323,0,4186.77419355,0,4184.19354839,0,4165.80645161,0,4162.90322581,0,4163.87096774,0,4131.93548387,0,4172.90322581,0,4175.80645161,0,4164.19354839,0,4208.38709677,0,4145.48387097,0,0,0,?
2018-01-26 08:37:49.153000,4162.58064516,0,4144.51612903,0,4166.77419355,0,4210.32258065,0,4187.09677419,0,4177.74193548,0,4168.38709677,0,4163.87096774,0,4168.38709677,0,4180.64516129,0,4173.22580645,0,4164.19354839,0,4204.51612903,0,4150.64516129,0,0,0,?
2018-01-26 08:37:49.165000,4150.0,0,4133.5483871,0,4181.29032258,0,4182.58064516,0,4190.96774194,0,4137.74193548,0,4163.5483871,0,4172.58064516,0,4179.03225806,0,4172.90322581,0,4176.4516129,0,4166.4516129,0,4203.22580645,0,4139.03225806,0,0,0,?
2018-01-26 08:37:49.169000,4158.06451613,0,4131.61290323,0,4172.90322581,0,4166.4516129,0,4183.22580645,0,4131.61290323,0,4154.83870968,0,4166.4516129,0,4159.03225806,0,4166.4516129,0,4179.35483871,0,4177.09677419,0,4205.48387097,0,4154.83870968,0,0,0,?
2018-01-26 08:37:49.182000,4158.06451613,0,4148.06451613,0,4161.29032258,0,4192.58064516,0,4176.77419355,0,4136.12903226,0,4168.70967742,0,4167.09677419,0,4200.96774194,0,4173.87096774,0,4172.58064516,0,4175.48387097,0,4163.22580645,0,4159.35483871,0,0,0,?
2018-01-26 08:37:49.184000,4139.67741935,0,4149.03225806,0,4162.58064516,0,4184.51612903,0,4171.61290323,0,4145.16129032,0,4173.5483871,0,4170.0,0,4185.80645161,0,4171.29032258,0,4171.29032258,0,4164.51612903,0,4206.12903226,0,4137.74193548,0,0,0,?
2018-01-26 08:37:49.195000,4165.48387097,0,4149.67741935,0,4182.58064516,0,4171.93548387,0,4181.93548387,0,4151.93548387,0,4160.0,0,4164.83870968,0,4204.19354839,0,4177.41935484,0,4193.87096774,0,4129.03225806,0,4200.96774194,0,4156.12903226,0,0,0,?
2018-01-26 08:37:49.200000,4149.35483871,0,4149.03225806,0,4188.38709677,0,4192.25806452,0,4204.19354839,0,4167.09677419,0,4170.96774194,0,4181.61290323,0,4194.51612903,0,4189.35483871,0,4197.41935484,0,4137.41935484,0,4203.5483871,0,4152.25806452,0,0,0,?
2018-01-26 08:37:49.216000,4152.58064516,0,4153.5483871,0,4174.51612903,0,4187.74193548,0,4190.96774194,0,4158.38709677,0,4187.09677419,0,4186.4516129,0,4204.19354839,0,4178.06451613,0,4175.16129032,0,4174.51612903,0,4206.4516129,0,4143.5483871,0,0,0,?
2018-01-26 08:37:49.218000,4157.09677419,0,4141.29032258,0,4182.25806452,0,4200.64516129,0,4189.67741935,0,4144.19354839,0,4189.03225806,0,4176.77419355,0,4200.96774194,0,4167.41935484,0,4162.58064516,0,4169.67741935,0,4205.16129032,0,4146.12903226,0,0,0,?
2018-01-26 08:37:49.225000,4131.61290323,0,4176.77419355,0,4173.22580645,0,4168.38709677,0,4202.90322581,0,4156.12903226,0,4180.32258065,0,4185.48387097,0,4165.48387097,0,4170.32258065,0,4174.19354839,0,4170.64516129,0,4193.5483871,0,4144.19354839,0,0,0,?
2018-01-26 08:37:49.232000,4159.35483871,0,4147.74193548,0,4200.64516129,0,4197.41935484,0,4196.12903226,0,4159.03225806,0,4175.48387097,0,4193.22580645,0,4206.77419355,0,4190.96774194,0,4195.48387097,0,4174.19354839,0,4203.22580645,0,4161.29032258,0,0,0,?
2018-01-26 08:37:49.243000,4147.41935484,0,4155.48387097,0,4203.87096774,0,4186.12903226,0,4198.38709677,0,4150.64516129,0,4182.25806452,0,4186.4516129,0,4210.96774194,0,4200.64516129,0,4188.38709677,0,4176.77419355,0,4210.96774194,0,4150.64516129,0,0,0,?
2018-01-26 08:37:49.248000,4149.03225806,0,4152.58064516,0,4185.16129032,0,4167.74193548,0,4188.06451613,0,4143.22580645,0,4177.41935484,0,4174.51612903,0,4199.03225806,0,4179.67741935,0,4181.93548387,0,4174.19354839,0,4201.29032258,0,4157.74193548,0,0,0,?
2018-01-26 08:37:49.259000,4160.0,0,4159.67741935,0,4199.03225806,0,4163.22580645,0,4185.80645161,0,4149.35483871,0,4179.35483871,0,4180.96774194,0,4186.4516129,0,4186.77419355,0,4198.38709677,0,4129.67741935,0,4207.41935484,0,4169.03225806,0,0,0,?
2018-01-26 08:37:49.264000,4130.96774194,0,4160.32258065,0,4203.87096774,0,4195.80645161,0,4201.61290323,0,4152.58064516,0,4186.77419355,0,4181.61290323,0,4167.09677419,0,4201.93548387,0,4183.22580645,0,4136.77419355,0,4165.16129032,0,4144.19354839,0,0,0,?
2018-01-26 08:37:49.276000,4186.4516129,0,4161.61290323,0,4211.29032258,0,4181.29032258,0,4174.51612903,0,4137.09677419,0,4164.19354839,0,4152.90322581,0,4185.16129032,0,4174.51612903,0,4163.87096774,0,4168.38709677,0,4210.32258065,0,4164.83870968,0,0,0,?
2018-01-26 08:37:49.279000,4133.22580645,0,4133.87096774,0,4170.96774194,0,4197.09677419,0,4181.93548387,0,4143.5483871,0,4170.0,0,4170.64516129,0,4196.77419355,0,4168.06451613,0,4178.70967742,0,4159.03225806,0,4199.67741935,0,4151.29032258,0,0,0,?
2018-01-26 08:37:49.290000,4168.38709677,0,4137.09677419,0,4189.03225806,0,4196.4516129,0,4196.12903226,0,4155.16129032,0,4181.93548387,0,4184.83870968,0,4161.29032258,0,4180.0,0,4178.38709677,0,4172.58064516,0,4202.58064516,0,4145.48387097,0,0,0,?
2018-01-26 08:37:49.296000,4211.61290323,0,4162.90322581,0,4164.83870968,0,4134.51612903,0,4131.93548387,0,4133.5483871,0,4139.35483871,0,4174.19354839,0,4175.48387097,0,4149.67741935,0,4161.93548387,0,4176.4516129,0,4168.38709677,0,4203.5483871,0,0,0,?
2018-01-26 08:37:49.308000,4159.67741935,0,4172.58064516,0,4170.96774194,0,4169.67741935,0,4191.61290323,0,4151.61290323,0,4170.96774194,0,4171.29032258,0,4163.5483871,0,4176.4516129,0,4173.22580645,0,4143.87096774,0,4161.29032258,0,4140.64516129,0,0,0,?
2018-01-26 08:37:49.312000,4125.16129032,0,4168.38709677,0,4194.51612903,0,4194.19354839,0,4202.58064516,0,4177.41935484,0,4203.22580645,0,4173.22580645,0,4237.74193548,0,4164.19354839,0,4185.48387097,0,4146.77419355,0,4209.67741935,0,4165.80645161,0,0,0,?
2018-01-26 08:37:49.321000,4197.41935484,0,4172.90322581,0,4183.87096774,0,4207.41935484,0,4178.70967742,0,4151.29032258,0,4152.58064516,0,4160.64516129,0,4176.77419355,0,4171.61290323,0,4167.09677419,0,4173.5483871,0,4161.93548387,0,4177.41935484,0,0,0,?
2018-01-26 08:37:49.326000,4172.90322581,0,4166.4516129,0,4183.5483871,0,4175.48387097,0,4184.51612903,0,4150.64516129,0,4161.61290323,0,4171.93548387,0,4208.06451613,0,4161.93548387,0,4168.38709677,0,4176.4516129,0,4201.93548387,0,4159.03225806,0,0,0,?
2018-01-26 08:37:49.342000,4131.61290323,0,4150.32258065,0,4196.4516129,0,4201.61290323,0,4168.06451613,0,4166.77419355,0,4192.58064516,0,4210.32258065,0,4204.51612903,0,4183.87096774,0,4190.64516129,0,4140.32258065,0,4206.4516129,0,4143.87096774,0,0,0,?
2018-01-26 08:37:49.343000,4145.16129032,0,4156.12903226,0,4172.58064516,0,4164.51612903,0,4162.58064516,0,4169.03225806,0,4187.74193548,0,4206.77419355,0,4176.77419355,0,4182.58064516,0,4182.25806452,0,4140.0,0,4207.09677419,0,4134.51612903,0,0,0,?
2018-01-26 08:37:49.352000,4150.64516129,0,4150.96774194,0,4143.22580645,0,4170.32258065,0,4206.12903226,0,4164.51612903,0,4172.90322581,0,4191.61290323,0,4172.58064516,0,4183.5483871,0,4167.41935484,0,4129.03225806,0,4203.87096774,0,4151.93548387,0,0,0,?
2018-01-26 08:37:49.357000,4158.38709677,0,4152.58064516,0,4148.38709677,0,4171.61290323,0,4164.19354839,0,4163.87096774,0,4176.77419355,0,4188.38709677,0,4189.35483871,0,4188.70967742,0,4170.0,0,4136.4516129,0,4204.83870968,0,4166.12903226,0,0,0,?
2018-01-26 08:37:49.372000,4142.58064516,0,4151.29032258,0,4147.41935484,0,4204.51612903,0,4171.93548387,0,4172.58064516,0,4188.70967742,0,4194.83870968,0,4196.4516129,0,4175.16129032,0,4171.61290323,0,4140.32258065,0,4208.70967742,0,4147.74193548,0,0,0,?
2018-01-26 08:37:49.374000,4166.77419355,0,4158.06451613,0,4148.06451613,0,4165.16129032,0,4196.77419355,0,4166.77419355,0,4169.67741935,0,4176.77419355,0,4204.19354839,0,4157.09677419,0,4167.74193548,0,4170.0,0,4168.70967742,0,4162.58064516,0,0,0,?
2018-01-26 08:37:49.386000,4131.93548387,0,4148.70967742,0,4154.83870968,0,4185.16129032,0,4191.61290323,0,4167.74193548,0,4163.22580645,0,4174.51612903,0,4205.16129032,0,4163.87096774,0,4170.32258065,0,4172.58064516,0,4163.22580645,0,4150.96774194,0,0,0,?
2018-01-26 08:37:49.390000,4159.67741935,0,4159.03225806,0,4177.41935484,0,4201.93548387,0,4191.93548387,0,4176.4516129,0,4170.96774194,0,4166.4516129,0,4161.93548387,0,4172.25806452,0,4180.64516129,0,4134.83870968,0,4208.38709677,0,4153.87096774,0,0,0,?
2018-01-26 08:37:49.403000,4165.48387097,0,4161.29032258,0,4131.93548387,0,4178.70967742,0,4163.22580645,0,4179.67741935,0,4180.0,0,4175.80645161,0,4171.29032258,0,4177.74193548,0,4177.41935484,0,4176.4516129,0,4206.12903226,0,4147.41935484,0,0,0,?
2018-01-26 08:37:49.407000,4138.70967742,0,4151.93548387,0,4165.80645161,0,4171.29032258,0,4162.90322581,0,4176.77419355,0,4178.70967742,0,4194.19354839,0,4190.64516129,0,4174.51612903,0,4173.87096774,0,4175.80645161,0,4201.93548387,0,4139.67741935,0,0,0,?
2018-01-26 08:37:49.418000,4179.35483871,0,4161.61290323,0,4159.35483871,0,4173.22580645,0,4185.48387097,0,4187.74193548,0,4182.58064516,0,4188.70967742,0,4179.67741935,0,4176.77419355,0,4187.74193548,0,4143.22580645,0,4208.06451613,0,4169.03225806,0,0,0,?
2018-01-26 08:37:49.424000,4140.64516129,0,4152.58064516,0,4145.48387097,0,4198.06451613,0,4205.16129032,0,4200.64516129,0,4201.61290323,0,4196.4516129,0,4173.5483871,0,4182.25806452,0,4179.03225806,0,4144.51612903,0,4206.77419355,0,4152.25806452,0,0,0,?
2018-01-26 08:37:49.434000,4157.09677419,0,4163.87096774,0,4145.80645161,0,4166.77419355,0,4200.32258065,0,4185.80645161,0,4191.93548387,0,4197.74193548,0,4169.35483871,0,4174.51612903,0,4162.58064516,0,4135.16129032,0,4205.48387097,0,4159.35483871,0,0,0,?
2018-01-26 08:37:49.438000,4164.83870968,0,4157.09677419,0,4156.12903226,0,4171.61290323,0,4186.12903226,0,4184.83870968,0,4185.80645161,0,4199.67741935,0,4194.83870968,0,4185.80645161,0,4162.58064516,0,4143.22580645,0,4161.29032258,0,4159.67741935,0,0,0,?
2018-01-26 08:37:49.449000,4130.32258065,0,4137.09677419,0,4152.90322581,0,4194.19354839,0,4191.61290323,0,4192.90322581,0,4187.09677419,0,4188.38709677,0,4179.03225806,0,4187.41935484,0,4161.61290323,0,4134.51612903,0,4210.64516129,0,4138.70967742,0,0,0,?
2018-01-26 08:37:49.453000,4175.48387097,0,4163.5483871,0,4147.41935484,0,4143.5483871,0,4189.35483871,0,4188.38709677,0,4177.41935484,0,4172.25806452,0,4207.41935484,0,4176.12903226,0,4172.25806452,0,4131.93548387,0,4164.19354839,0,4168.06451613,0,0,0,?
2018-01-26 08:37:49.465000,4146.12903226,0,4161.61290323,0,4155.16129032,0,4172.25806452,0,4192.90322581,0,4186.4516129,0,4180.96774194,0,4186.77419355,0,4197.09677419,0,4179.67741935,0,4178.06451613,0,4153.87096774,0,4208.70967742,0,4162.58064516,0,0,0,?
2018-01-26 08:37:49.469000,4151.61290323,0,4146.77419355,0,4138.70967742,0,4198.70967742,0,4177.41935484,0,4175.80645161,0,4169.35483871,0,4166.77419355,0,4188.38709677,0,4170.64516129,0,4168.06451613,0,4144.51612903,0,4200.64516129,0,4157.41935484,0,0,0,?
2018-01-26 08:37:49.477000,4165.80645161,0,4136.12903226,0,4152.58064516,0,4204.83870968,0,4184.51612903,0,4170.64516129,0,4161.93548387,0,4145.48387097,0,4133.87096774,0,4159.67741935,0,4160.32258065,0,4167.41935484,0,4195.80645161,0,4150.32258065,0,0,0,?
2018-01-26 08:37:49.484000,4130.0,0,4174.51612903,0,4129.67741935,0,4189.67741935,0,4197.41935484,0,4178.06451613,0,4170.32258065,0,4155.48387097,0,4180.0,0,4150.64516129,0,4146.12903226,0,4162.58064516,0,4189.35483871,0,4136.77419355,0,0,0,?
2018-01-26 08:37:49.496000,4172.58064516,0,4142.58064516,0,4115.48387097,0,4144.83870968,0,4193.87096774,0,4195.80645161,0,4177.41935484,0,4174.51612903,0,4165.80645161,0,4157.41935484,0,4145.48387097,0,4172.25806452,0,4202.90322581,0,4168.38709677,0,0,0,?
2018-01-26 08:37:49.500000,4150.64516129,0,4142.90322581,0,4172.58064516,0,4172.90322581,0,4168.38709677,0,4171.29032258,0,4194.19354839,0,4165.16129032,0,4200.64516129,0,4186.4516129,0,4155.16129032,0,4134.19354839,0,4210.0,0,4153.22580645,0,0,0,?
2018-01-26 08:37:49.512000,4153.87096774,0,4147.74193548,0,4175.80645161,0,4161.61290323,0,4197.74193548,0,4170.96774194,0,4193.22580645,0,4209.03225806,0,4184.19354839,0,4190.0,0,4155.80645161,0,4138.06451613,0,4208.38709677,0,4148.70967742,0,0,0,?
2018-01-26 08:37:49.516000,4174.19354839,0,4157.41935484,0,4161.29032258,0,4168.38709677,0,4182.90322581,0,4173.5483871,0,4187.09677419,0,4190.96774194,0,4167.74193548,0,4190.32258065,0,4153.87096774,0,4138.70967742,0,4163.22580645,0,4164.83870968,0,0,0,?
2018-01-26 08:37:49.526000,4143.87096774,0,4145.80645161,0,4164.83870968,0,4200.32258065,0,4161.93548387,0,4187.74193548,0,4194.83870968,0,4209.67741935,0,4198.38709677,0,4187.09677419,0,4150.0,0,4132.25806452,0,4203.22580645,0,4151.93548387,0,0,0,?
2018-01-26 08:37:49.532000,4185.16129032,0,4152.58064516,0,4158.06451613,0,4170.0,0,4201.29032258,0,4170.0,0,4185.80645161,0,4191.61290323,0,4189.67741935,0,4176.12903226,0,4149.03225806,0,4171.93548387,0,4200.32258065,0,4161.29032258,0,0,0,?
2018-01-26 08:37:49.541000,4153.87096774,0,4145.80645161,0,4150.96774194,0,4202.58064516,0,4196.4516129,0,4208.70967742,0,4181.29032258,0,4180.0,0,4203.5483871,0,4177.74193548,0,4149.35483871,0,4176.77419355,0,4202.90322581,0,4137.41935484,0,0,0,?
2018-01-26 08:37:49.547000,4148.70967742,0,4146.77419355,0,4135.48387097,0,4209.35483871,0,4181.93548387,0,4163.22580645,0,4178.70967742,0,4187.09677419,0,4200.96774194,0,4167.74193548,0,4147.09677419,0,4135.80645161,0,4198.70967742,0,4137.74193548,0,0,0,?
2018-01-26 08:37:49.559000,4183.87096774,0,4151.61290323,0,4154.83870968,0,4199.03225806,0,4181.93548387,0,4162.58064516,0,4183.87096774,0,4191.93548387,0,4165.48387097,0,4176.4516129,0,4144.83870968,0,4141.29032258,0,4205.48387097,0,4155.16129032,0,0,0,?
2018-01-26 08:37:49.563000,4144.83870968,0,4143.5483871,0,4186.4516129,0,4171.61290323,0,4170.0,0,4166.12903226,0,4195.48387097,0,4198.70967742,0,4171.61290323,0,4199.67741935,0,4142.90322581,0,4140.96774194,0,4211.29032258,0,4130.32258065,0,0,0,?
2018-01-26 08:37:49.574000,4173.22580645,0,4160.96774194,0,4174.19354839,0,4199.67741935,0,4168.06451613,0,4181.29032258,0,4192.58064516,0,4197.74193548,0,4183.87096774,0,4195.48387097,0,4148.06451613,0,4130.32258065,0,4162.25806452,0,4147.74193548,0,0,0,?
2018-01-26 08:37:49.579000,4147.09677419,0,4147.41935484,0,4174.51612903,0,4195.16129032,0,4161.93548387,0,4192.90322581,0,4199.35483871,0,4209.67741935,0,4215.16129032,0,4185.16129032,0,4148.70967742,0,4174.83870968,0,4201.29032258,0,4140.64516129,0,0,0,?
2018-01-26 08:37:49.593000,4134.83870968,0,4143.22580645,0,4158.38709677,0,4166.12903226,0,4203.5483871,0,4171.29032258,0,4178.70967742,0,4182.25806452,0,4187.74193548,0,4163.5483871,0,4130.96774194,0,4168.06451613,0,4193.22580645,0,4137.41935484,0,0,0,?
2018-01-26 08:37:49.594000,4169.35483871,0,4161.29032258,0,4135.80645161,0,4181.29032258,0,4199.03225806,0,4162.90322581,0,4162.90322581,0,4157.74193548,0,4190.0,0,4151.93548387,0,4170.32258065,0,4165.16129032,0,4198.70967742,0,4158.06451613,0,0,0,?
2018-01-26 08:37:49.608000,4135.16129032,0,4145.16129032,0,4150.96774194,0,4176.4516129,0,4211.29032258,0,4190.0,0,4194.83870968,0,4192.58064516,0,4172.90322581,0,4159.03225806,0,4173.22580645,0,4170.0,0,4195.16129032,0,4134.83870968,0,0,0,?
2018-01-26 08:37:49.612000,4173.22580645,0,4149.35483871,0,4175.80645161,0,4168.38709677,0,4201.61290323,0,4192.25806452,0,4192.58064516,0,4202.90322581,0,4189.35483871,0,4168.06451613,0,4140.96774194,0,4175.80645161,0,4196.12903226,0,4147.09677419,0,0,0,?
2018-01-26 08:37:49.626000,4159.03225806,0,4156.4516129,0,4193.5483871,0,4154.83870968,0,4209.35483871,0,4176.77419355,0,4179.67741935,0,4199.03225806,0,4186.12903226,0,4174.51612903,0,4149.03225806,0,4130.0,0,4193.22580645,0,4145.48387097,0,0,0,?
2018-01-26 08:37:49.627000,4141.29032258,0,4154.83870968,0,4167.74193548,0,4187.74193548,0,4197.09677419,0,4209.67741935,0,4176.77419355,0,4183.5483871,0,4192.25806452,0,4163.87096774,0,4179.03225806,0,4177.74193548,0,4190.0,0,4139.35483871,0,0,0,?
2018-01-26 08:37:49.639000,4179.03225806,0,4147.74193548,0,4146.4516129,0,4168.38709677,0,4181.61290323,0,4202.58064516,0,4170.0,0,4176.4516129,0,4172.25806452,0,4169.67741935,0,4173.87096774,0,4136.4516129,0,4200.64516129,0,4152.90322581,0,0,0,?
2018-01-26 08:37:49.642000,4138.06451613,0,4176.77419355,0,4135.16129032,0,4209.35483871,0,4197.74193548,0,4164.51612903,0,4171.61290323,0,4193.87096774,0,4175.48387097,0,4183.5483871,0,4129.03225806,0,4145.80645161,0,4198.38709677,0,4178.70967742,0,0,0,?
2018-01-26 08:37:49.660000,4164.19354839,0,4140.0,0,4147.41935484,0,4164.19354839,0,4184.51612903,0,4169.35483871,0,4168.06451613,0,4176.77419355,0,4207.09677419,0,4173.22580645,0,4138.70967742,0,4131.29032258,0,4189.67741935,0,4144.83870968,0,0,0,?
2018-01-26 08:37:49.665000,4158.38709677,0,4134.51612903,0,4176.77419355,0,4177.09677419,0,4186.77419355,0,4172.25806452,0,4172.58064516,0,4173.5483871,0,4182.25806452,0,4168.70967742,0,4150.0,0,4171.61290323,0,4188.06451613,0,4146.77419355,0,0,0,?
2018-01-26 08:37:49.673000,4139.03225806,0,4170.64516129,0,4175.80645161,0,4159.35483871,0,4191.29032258,0,4172.25806452,0,4173.22580645,0,4183.5483871,0,4197.41935484,0,4166.12903226,0,4144.19354839,0,4169.03225806,0,4190.0,0,4136.77419355,0,0,0,?
2018-01-26 08:37:49.680000,4185.16129032,0,4136.4516129,0,4170.0,0,4134.19354839,0,4182.90322581,0,4169.67741935,0,4169.35483871,0,4178.70967742,0,4184.19354839,0,4168.38709677,0,4153.22580645,0,4167.41935484,0,4200.96774194,0,4163.87096774,0,0,0,?
2018-01-26 08:37:49.690000,4143.87096774,0,4175.80645161,0,4149.67741935,0,4172.90322581,0,4192.58064516,0,4173.22580645,0,4181.93548387,0,4184.83870968,0,4162.58064516,0,4170.96774194,0,4170.64516129,0,4129.67741935,0,4200.96774194,0,4146.77419355,0,0,0,?
2018-01-26 08:37:49.697000,4160.32258065,0,4136.77419355,0,4160.64516129,0,4160.96774194,0,4177.74193548,0,4165.80645161,0,4178.38709677,0,4179.67741935,0,4146.12903226,0,4162.58064516,0,4166.77419355,0,4140.0,0,4205.80645161,0,4155.16129032,0,0,0,?
2018-01-26 08:37:49.706000,4170.0,0,4150.96774194,0,4132.58064516,0,4162.58064516,0,4185.16129032,0,4168.38709677,0,4181.61290323,0,4195.48387097,0,4199.67741935,0,4182.25806452,0,4168.38709677,0,4138.06451613,0,4167.41935484,0,4159.67741935,0,0,0,?
2018-01-26 08:37:49.713000,4147.74193548,0,4139.03225806,0,4187.41935484,0,4186.77419355,0,4199.03225806,0,4180.32258065,0,4189.03225806,0,4208.70967742,0,4185.48387097,0,4196.4516129,0,4187.74193548,0,4132.25806452,0,4210.96774194,0,4151.29032258,0,0,0,?
2018-01-26 08:37:49.721000,4181.93548387,0,4147.74193548,0,4181.61290323,0,4170.96774194,0,4196.4516129,0,4188.38709677,0,4182.25806452,0,4195.16129032,0,4165.48387097,0,4186.12903226,0,4192.25806452,0,4138.38709677,0,4162.58064516,0,4170.0,0,0,0,?
2018-01-26 08:37:49.730000,4131.61290323,0,4139.67741935,0,4168.38709677,0,4176.4516129,0,4208.06451613,0,4187.09677419,0,4190.0,0,4199.67741935,0,4171.61290323,0,4185.80645161,0,4176.77419355,0,4149.03225806,0,4163.87096774,0,4144.51612903,0,0,0,?
2018-01-26 08:37:49.750000,4145.80645161,0,4136.77419355,0,4157.41935484,0,4180.96774194,0,4181.29032258,0,4171.61290323,0,4188.38709677,0,4184.83870968,0,4165.16129032,0,4175.16129032,0,4177.74193548,0,4145.48387097,0,4204.19354839,0,4155.80645161,0,0,0,?
2018-01-26 08:37:49.754000,4171.93548387,0,4139.67741935,0,4141.29032258,0,4194.19354839,0,4180.96774194,0,4175.48387097,0,4190.64516129,0,4181.61290323,0,4155.48387097,0,4174.19354839,0,4190.64516129,0,4142.25806452,0,4199.67741935,0,4169.67741935,0,0,0,?
2018-01-26 08:37:49.759000,4177.41935484,0,4162.58064516,0,4150.0,0,4170.32258065,0,4185.16129032,0,4162.25806452,0,4193.22580645,0,4183.22580645,0,4171.61290323,0,4164.83870968,0,4204.51612903,0,4138.70967742,0,4209.03225806,0,4162.25806452,0,0,0,?
2018-01-26 08:37:49.760000,4138.70967742,0,4146.77419355,0,4176.4516129,0,4168.70967742,0,4185.16129032,0,4165.80645161,0,4185.48387097,0,4184.19354839,0,4139.67741935,0,4165.80645161,0,4195.48387097,0,4143.22580645,0,4206.4516129,0,4132.58064516,0,0,0,?
2018-01-26 08:37:49.769000,4179.03225806,0,4152.25806452,0,4152.90322581,0,4153.5483871,0,4168.70967742,0,4163.87096774,0,4167.41935484,0,4167.09677419,0,4152.25806452,0,4165.80645161,0,4191.93548387,0,4141.61290323,0,4207.74193548,0,4152.90322581,0,0,0,?
2018-01-26 08:37:49.777000,4147.74193548,0,4142.90322581,0,4172.90322581,0,4162.25806452,0,4173.22580645,0,4165.16129032,0,4170.96774194,0,4173.5483871,0,4206.4516129,0,4171.61290323,0,4201.61290323,0,4143.5483871,0,4199.03225806,0,4149.03225806,0,0,0,?
2018-01-26 08:37:49.786000,4144.83870968,0,4139.03225806,0,4158.06451613,0,4155.48387097,0,4174.83870968,0,4163.5483871,0,4170.64516129,0,4165.80645161,0,4173.5483871,0,4158.06451613,0,4187.74193548,0,4141.93548387,0,4195.48387097,0,4147.09677419,0,0,0,?
2018-01-26 08:37:49.793000,4175.48387097,0,4137.41935484,0,4167.74193548,0,4169.35483871,0,4190.64516129,0,4165.80645161,0,4174.83870968,0,4169.35483871,0,4167.09677419,0,4158.70967742,0,4177.09677419,0,4146.4516129,0,4161.93548387,0,4152.25806452,0,0,0,?
2018-01-26 08:37:49.802000,4135.48387097,0,4172.25806452,0,4130.64516129,0,4183.87096774,0,4201.29032258,0,4170.32258065,0,4182.25806452,0,4189.35483871,0,4180.64516129,0,4167.09677419,0,4181.29032258,0,4144.19354839,0,4210.32258065,0,4132.25806452,0,0,0,?
2018-01-26 08:37:49.808000,4170.0,0,4140.0,0,4135.48387097,0,4159.03225806,0,4170.0,0,4205.48387097,0,4167.74193548,0,4168.38709677,0,4180.0,0,4170.0,0,4182.90322581,0,4133.5483871,0,4201.29032258,0,4155.48387097,0,0,0,?
2018-01-26 08:37:49.816000,4151.29032258,0,4140.96774194,0,4153.22580645,0,4185.48387097,0,4187.09677419,0,4162.25806452,0,4182.25806452,0,4176.4516129,0,4136.12903226,0,4180.96774194,0,4190.64516129,0,4146.77419355,0,4203.5483871,0,4148.06451613,0,0,0,?
2018-01-26 08:37:49.825000,4140.96774194,0,4139.67741935,0,4177.41935484,0,4177.74193548,0,4196.12903226,0,4181.93548387,0,4196.4516129,0,4192.25806452,0,4187.41935484,0,4171.61290323,0,4202.58064516,0,4152.58064516,0,4207.74193548,0,4146.4516129,0,0,0,?
2018-01-26 08:37:49.839000,4165.48387097,0,4150.0,0,4137.41935484,0,4148.70967742,0,4187.41935484,0,4185.16129032,0,4190.0,0,4188.70967742,0,4190.96774194,0,4178.70967742,0,4201.61290323,0,4143.5483871,0,4210.64516129,0,4168.06451613,0,0,0,?
2018-01-26 08:37:49.843000,4129.67741935,0,4139.35483871,0,4174.19354839,0,4179.67741935,0,4190.0,0,4165.80645161,0,4191.61290323,0,4195.16129032,0,4203.5483871,0,4197.09677419,0,4182.25806452,0,4150.0,0,4205.48387097,0,4146.4516129,0,0,0,?
2018-01-26 08:37:49.851000,4174.83870968,0,4148.06451613,0,4136.12903226,0,4172.25806452,0,4167.74193548,0,4196.77419355,0,4182.90322581,0,4184.19354839,0,4204.83870968,0,4183.5483871,0,4183.87096774,0,4152.90322581,0,4210.0,0,4158.70967742,0,0,0,?
2018-01-26 08:37:49.856000,4163.5483871,0,4137.09677419,0,4129.03225806,0,4160.64516129,0,4190.64516129,0,4173.22580645,0,4190.64516129,0,4198.06451613,0,4203.22580645,0,4177.41935484,0,4202.58064516,0,4144.51612903,0,4208.06451613,0,4155.48387097,0,0,0,?
2018-01-26 08:37:49.867000,4140.0,0,4131.61290323,0,4168.38709677,0,4167.74193548,0,4208.38709677,0,4195.80645161,0,4195.16129032,0,4208.06451613,0,4183.5483871,0,4177.09677419,0,4198.06451613,0,4142.58064516,0,4200.32258065,0,4152.90322581,0,0,0,?
2018-01-26 08:37:49.871000,4165.80645161,0,4150.64516129,0,4179.35483871,0,4171.29032258,0,4193.87096774,0,4183.5483871,0,4188.06451613,0,4189.03225806,0,4177.74193548,0,4175.80645161,0,4196.12903226,0,4150.0,0,4209.35483871,0,4170.32258065,0,0,0,?
2018-01-26 08:37:49.878000,4176.77419355,0,4134.83870968,0,4149.67741935,0,4186.12903226,0,4196.12903226,0,4169.35483871,0,4188.06451613,0,4188.70967742,0,4194.51612903,0,4186.4516129,0,4199.67741935,0,4149.03225806,0,4210.0,0,4145.16129032,0,0,0,?
2018-01-26 08:37:49.887000,4166.4516129,0,4137.74193548,0,4162.58064516,0,4180.32258065,0,4190.96774194,0,4164.83870968,0,4177.74193548,0,4187.41935484,0,4172.90322581,0,4193.5483871,0,4194.83870968,0,4143.22580645,0,4165.80645161,0,4150.64516129,0,0,0,?
2018-01-26 08:37:49.893000,4163.87096774,0,4137.74193548,0,4151.61290323,0,4190.32258065,0,4200.96774194,0,4175.80645161,0,4188.38709677,0,4197.09677419,0,4188.06451613,0,4186.12903226,0,4187.09677419,0,4142.90322581,0,4165.48387097,0,4138.70967742,0,0,0,?
2018-01-26 08:37:49.905000,4139.03225806,0,4134.83870968,0,4185.16129032,0,4171.61290323,0,4194.51612903,0,4170.64516129,0,4193.22580645,0,4194.19354839,0,4184.83870968,0,4159.03225806,0,4184.19354839,0,4138.70967742,0,4200.96774194,0,4137.41935484,0,0,0,?
2018-01-26 08:37:49.909000,4179.03225806,0,4155.80645161,0,4149.67741935,0,4149.35483871,0,4177.41935484,0,4205.80645161,0,4170.96774194,0,4181.93548387,0,4182.58064516,0,4155.48387097,0,4187.41935484,0,4137.41935484,0,4208.06451613,0,4168.70967742,0,0,0,?
2018-01-26 08:37:49.927000,4142.58064516,0,4143.22580645,0,4138.70967742,0,4195.16129032,0,4193.87096774,0,4164.19354839,0,4173.87096774,0,4200.96774194,0,4164.19354839,0,4168.38709677,0,4186.4516129,0,4145.48387097,0,4210.0,0,4142.58064516,0,0,0,?
2018-01-26 08:37:49.936000,4164.19354839,0,4143.87096774,0,4153.87096774,0,4207.41935484,0,4199.03225806,0,4175.80645161,0,4186.77419355,0,4206.77419355,0,4168.70967742,0,4170.32258065,0,4191.29032258,0,4149.35483871,0,4207.74193548,0,4155.48387097,0,0,0,?
2018-01-26 08:37:49.940000,4161.61290323,0,4154.51612903,0,4176.4516129,0,4205.80645161,0,4210.64516129,0,4178.70967742,0,4192.25806452,0,4210.96774194,0,4164.83870968,0,4196.12903226,0,4192.25806452,0,4149.35483871,0,4162.58064516,0,4161.93548387,0,0,0,?
2018-01-26 08:37:49.949000,4138.70967742,0,4160.96774194,0,4187.09677419,0,4195.80645161,0,4205.48387097,0,4209.67741935,0,4178.06451613,0,4195.16129032,0,4205.80645161,0,4200.32258065,0,4184.19354839,0,4139.67741935,0,4162.90322581,0,4145.80645161,0,0,0,?
2018-01-26 08:37:49.951000,4187.74193548,0,4170.32258065,0,4191.29032258,0,4207.41935484,0,4189.35483871,0,4197.09677419,0,4165.48387097,0,4170.64516129,0,4192.25806452,0,4176.77419355,0,4188.70967742,0,4139.03225806,0,4168.06451613,0,4179.35483871,0,0,0,?
2018-01-26 08:37:49.967000,4150.32258065,0,4149.67741935,0,4200.96774194,0,4201.29032258,0,4164.19354839,0,4167.09677419,0,4184.51612903,0,4195.48387097,0,4193.22580645,0,4187.74193548,0,4187.09677419,0,4151.93548387,0,4166.12903226,0,4171.61290323,0,0,0,?
2018-01-26 08:37:49.971000,4163.5483871,0,4152.90322581,0,4176.77419355,0,4210.96774194,0,4208.06451613,0,4166.12903226,0,4189.03225806,0,4205.16129032,0,4192.25806452,0,4197.41935484,0,4180.0,0,4150.64516129,0,4208.06451613,0,4160.96774194,0,0,0,?
2018-01-26 08:37:49.980000,4165.16129032,0,4154.19354839,0,4184.83870968,0,4199.03225806,0,4202.25806452,0,4208.06451613,0,4188.38709677,0,4203.87096774,0,4171.61290323,0,4190.64516129,0,4187.74193548,0,4147.09677419,0,4207.09677419,0,4153.5483871,0,0,0,?
2018-01-26 08:37:49.983000,4130.32258065,0,4143.22580645,0,4192.25806452,0,4177.09677419,0,4161.61290323,0,4168.38709677,0,4190.32258065,0,4204.19354839,0,4168.38709677,0,4187.74193548,0,4188.38709677,0,4146.77419355,0,4206.77419355,0,4146.77419355,0,0,0,?
2018-01-26 08:37:49.998000,4176.77419355,0,4155.16129032,0,4151.93548387,0,4200.0,0,4199.03225806,0,4177.74193548,0,4188.06451613,0,4199.03225806,0,4184.83870968,0,4202.90322581,0,4179.03225806,0,4143.87096774,0,4210.0,0,4165.16129032,0,0,0,?
2018-01-26 08:37:50.001000,4148.38709677,0,4148.70967742,0,4153.5483871,0,4198.38709677,0,4203.87096774,0,4175.16129032,0,4199.03225806,0,4162.25806452,0,4165.48387097,0,4162.25806452,0,4175.16129032,0,4150.0,0,4204.19354839,0,4144.83870968,0,0,0,?
2018-01-26 08:37:50.011000,4160.64516129,0,4154.83870968,0,4165.48387097,0,4208.06451613,0,4187.41935484,0,4161.29032258,0,4184.51612903,0,4192.58064516,0,4194.83870968,0,4184.51612903,0,4180.96774194,0,4147.74193548,0,4204.19354839,0,4156.12903226,0,0,0,?
2018-01-26 08:37:50.015000,4175.16129032,0,4150.0,0,4169.67741935,0,4211.29032258,0,4183.87096774,0,4208.06451613,0,4170.0,0,4178.70967742,0,4176.4516129,0,4178.06451613,0,4192.90322581,0,4141.93548387,0,4209.67741935,0,4160.32258065,0,0,0,?
2018-01-26 08:37:50.031000,4139.03225806,0,4132.58064516,0,4181.93548387,0,4205.80645161,0,4191.93548387,0,4200.64516129,0,4170.96774194,0,4185.16129032,0,4161.29032258,0,4192.25806452,0,4181.61290323,0,4145.16129032,0,4202.90322581,0,4144.51612903,0,0,0,?
2018-01-26 08:37:50.034000,4176.77419355,0,4151.29032258,0,4192.58064516,0,4192.90322581,0,4174.51612903,0,4178.38709677,0,4162.25806452,0,4165.48387097,0,4185.80645161,0,4184.83870968,0,4168.70967742,0,4147.41935484,0,4202.25806452,0,4174.19354839,0,0,0,?
2018-01-26 08:37:50.047000,4144.51612903,0,4147.09677419,0,4196.4516129,0,4198.70967742,0,4185.80645161,0,4181.93548387,0,4162.25806452,0,4158.06451613,0,4172.58064516,0,4170.32258065,0,4173.87096774,0,4144.83870968,0,4196.77419355,0,4152.90322581,0,0,0,?
2018-01-26 08:37:50.049000,4151.93548387,0,4140.32258065,0,4155.16129032,0,4174.83870968,0,4180.32258065,0,4196.12903226,0,4149.67741935,0,4147.74193548,0,4132.58064516,0,4152.25806452,0,4174.83870968,0,4135.16129032,0,4196.4516129,0,4147.41935484,0,0,0,?
2018-01-26 08:37:50.061000,4179.03225806,0,4138.70967742,0,4144.83870968,0,4174.51612903,0,4180.96774194,0,4194.83870968,0,4153.87096774,0,4153.22580645,0,4136.4516129,0,4151.93548387,0,4162.58064516,0,4136.12903226,0,4204.51612903,0,4154.51612903,0,0,0,?
2018-01-26 08:37:50.064000,4142.90322581,0,4169.03225806,0,4161.61290323,0,4188.06451613,0,4194.19354839,0,4190.0,0,4178.70967742,0,4173.5483871,0,4177.41935484,0,4155.16129032,0,4145.80645161,0,4139.35483871,0,4200.0,0,4129.03225806,0,0,0,?
2018-01-26 08:37:50.075000,4174.19354839,0,4174.19354839,0,4137.09677419,0,4160.96774194,0,4168.38709677,0,4201.29032258,0,4171.61290323,0,4171.61290323,0,4178.70967742,0,4160.32258065,0,4150.96774194,0,4137.41935484,0,4207.41935484,0,4151.29032258,0,0,0,?
2018-01-26 08:37:50.076000,4145.16129032,0,4131.29032258,0,4146.4516129,0,4175.48387097,0,4170.64516129,0,4208.70967742,0,4170.0,0,4187.41935484,0,4164.83870968,0,4176.12903226,0,4158.06451613,0,4149.35483871,0,4206.12903226,0,4145.48387097,0,0,0,?
2018-01-26 08:37:50.092000,4153.5483871,0,4150.96774194,0,4176.12903226,0,4176.77419355,0,4168.38709677,0,4175.80645161,0,4166.12903226,0,4177.09677419,0,4206.4516129,0,4168.06451613,0,4153.5483871,0,4139.35483871,0,4197.09677419,0,4143.87096774,0,0,0,?
2018-01-26 08:37:50.094000,4182.25806452,0,4164.19354839,0,4162.25806452,0,4164.83870968,0,4153.5483871,0,4155.48387097,0,4151.61290323,0,4147.09677419,0,4173.22580645,0,4172.58064516,0,4159.03225806,0,4173.22580645,0,4204.51612903,0,4163.22580645,0,0,0,?
2018-01-26 08:37:50.106000,4131.29032258,0,4146.4516129,0,4171.29032258,0,4174.83870968,0,4153.5483871,0,4169.67741935,0,4144.83870968,0,4144.51612903,0,4162.90322581,0,4182.90322581,0,4153.87096774,0,4133.22580645,0,4203.5483871,0,4142.58064516,0,0,0,?
2018-01-26 08:37:50.108000,4168.38709677,0,4151.61290323,0,4179.35483871,0,4160.32258065,0,4150.32258065,0,4175.48387097,0,4140.96774194,0,4142.90322581,0,4178.06451613,0,4173.5483871,0,4151.93548387,0,4143.87096774,0,4202.90322581,0,4150.96774194,0,0,0,?
2018-01-26 08:37:50.125000,4156.12903226,0,4145.48387097,0,4190.0,0,4199.03225806,0,4173.87096774,0,4188.06451613,0,4163.22580645,0,4167.41935484,0,4192.25806452,0,4180.32258065,0,4166.12903226,0,4142.90322581,0,4205.48387097,0,4147.74193548,0,0,0,?
2018-01-26 08:37:50.125000,4149.67741935,0,4147.41935484,0,4210.32258065,0,4162.25806452,0,4170.64516129,0,4197.74193548,0,4173.22580645,0,4177.41935484,0,4180.32258065,0,4170.96774194,0,4172.90322581,0,4137.41935484,0,4202.25806452,0,4158.38709677,0,0,0,?
2018-01-26 08:37:50.139000,4183.87096774,0,4161.29032258,0,4162.58064516,0,4158.38709677,0,4162.25806452,0,4195.48387097,0,4171.93548387,0,4172.90322581,0,4196.4516129,0,4166.77419355,0,4164.19354839,0,4140.64516129,0,4207.41935484,0,4177.74193548,0,0,0,?
2018-01-26 08:37:50.141000,4142.25806452,0,4141.61290323,0,4174.19354839,0,4153.87096774,0,4172.58064516,0,4195.48387097,0,4179.35483871,0,4188.38709677,0,4166.12903226,0,4180.64516129,0,4155.80645161,0,4143.22580645,0,4162.25806452,0,4152.90322581,0,0,0,?
2018-01-26 08:37:50.156000,4176.12903226,0,4138.38709677,0,4182.25806452,0,4162.90322581,0,4146.77419355,0,4182.90322581,0,4158.70967742,0,4161.93548387,0,4173.87096774,0,4173.87096774,0,4158.06451613,0,4133.5483871,0,4162.25806452,0,4161.29032258,0,0,0,?
2018-01-26 08:37:50.158000,4161.93548387,0,4176.4516129,0,4129.03225806,0,4171.29032258,0,4149.03225806,0,4169.03225806,0,4149.35483871,0,4144.19354839,0,4134.83870968,0,4175.48387097,0,4155.80645161,0,4132.25806452,0,4206.12903226,0,4139.67741935,0,0,0,?
2018-01-26 08:37:50.170000,4142.58064516,0,4130.96774194,0,4140.32258065,0,4166.77419355,0,4157.41935484,0,4162.58064516,0,4155.80645161,0,4154.51612903,0,4190.64516129,0,4176.77419355,0,4144.51612903,0,4137.09677419,0,4205.16129032,0,4134.83870968,0,0,0,?
2018-01-26 08:37:50.173000,4182.90322581,0,4160.96774194,0,4205.16129032,0,4153.87096774,0,4150.96774194,0,4167.74193548,0,4156.4516129,0,4166.12903226,0,4181.29032258,0,4172.25806452,0,4155.48387097,0,4142.58064516,0,4208.38709677,0,4175.16129032,0,0,0,?
2018-01-26 08:37:50.187000,4141.29032258,0,4147.41935484,0,4175.16129032,0,4152.90322581,0,4158.06451613,0,4176.4516129,0,4155.48387097,0,4168.70967742,0,4198.38709677,0,4170.32258065,0,4169.35483871,0,4144.19354839,0,4198.06451613,0,4146.77419355,0,0,0,?
2018-01-26 08:37:50.189000,4165.80645161,0,4143.22580645,0,4166.12903226,0,4136.12903226,0,4150.96774194,0,4173.5483871,0,4150.0,0,4141.93548387,0,4151.29032258,0,4162.58064516,0,4159.35483871,0,4133.5483871,0,4200.96774194,0,4140.64516129,0,0,0,?
2018-01-26 08:37:50.201000,4161.61290323,0,4137.74193548,0,4134.83870968,0,4160.32258065,0,4168.70967742,0,4183.5483871,0,4163.87096774,0,4156.12903226,0,4178.70967742,0,4160.0,0,4139.67741935,0,4174.51612903,0,4200.64516129,0,4142.90322581,0,0,0,?
2018-01-26 08:37:50.203000,4139.03225806,0,4172.25806452,0,4166.77419355,0,4152.58064516,0,4160.0,0,4181.93548387,0,4157.41935484,0,4159.67741935,0,4149.35483871,0,4143.5483871,0,4130.32258065,0,4167.09677419,0,4185.48387097,0,4130.0,0,0,0,?
2018-01-26 08:37:50.219000,4178.06451613,0,4168.38709677,0,4146.77419355,0,4171.29032258,0,4130.0,0,4169.03225806,0,4146.77419355,0,4134.19354839,0,4146.4516129,0,4139.35483871,0,4142.58064516,0,4167.41935484,0,4195.48387097,0,4132.58064516,0,0,0,?
2018-01-26 08:37:50.224000,4139.35483871,0,4152.90322581,0,4167.74193548,0,4138.70967742,0,4154.83870968,0,4181.93548387,0,4170.64516129,0,4158.70967742,0,4162.25806452,0,4152.58064516,0,4147.09677419,0,4170.0,0,4203.87096774,0,4164.19354839,0,0,0,?
2018-01-26 08:37:50.233000,4167.74193548,0,4169.03225806,0,4129.35483871,0,4169.35483871,0,4161.61290323,0,4190.96774194,0,4168.06451613,0,4173.87096774,0,4195.80645161,0,4156.4516129,0,4147.09677419,0,4172.25806452,0,4197.41935484,0,4139.03225806,0,0,0,?
2018-01-26 08:37:50.237000,4177.09677419,0,4136.4516129,0,4150.64516129,0,4146.12903226,0,4162.58064516,0,4189.67741935,0,4160.32258065,0,4168.38709677,0,4168.70967742,0,4169.67741935,0,4166.77419355,0,4138.70967742,0,4198.70967742,0,4149.03225806,0,0,0,?
2018-01-26 08:37:50.251000,4147.41935484,0,4136.12903226,0,4177.41935484,0,4180.64516129,0,4158.38709677,0,4169.67741935,0,4156.12903226,0,4159.35483871,0,4160.0,0,4167.41935484,0,4183.5483871,0,4138.38709677,0,4206.12903226,0,4142.58064516,0,0,0,?
2018-01-26 08:37:50.254000,4183.5483871,0,4137.09677419,0,4176.4516129,0,4131.93548387,0,4142.90322581,0,4153.22580645,0,4137.74193548,0,4152.58064516,0,4180.0,0,4157.09677419,0,4187.41935484,0,4178.38709677,0,4207.74193548,0,4168.38709677,0,0,0,?
2018-01-26 08:37:50.264000,4142.90322581,0,4165.48387097,0,4177.09677419,0,4173.87096774,0,4161.29032258,0,4166.4516129,0,4143.5483871,0,4167.41935484,0,4198.06451613,0,4155.48387097,0,4181.61290323,0,4129.35483871,0,4197.74193548,0,4144.51612903,0,0,0,?
2018-01-26 08:37:50.266000,4157.09677419,0,4174.51612903,0,4148.38709677,0,4139.67741935,0,4143.5483871,0,4163.22580645,0,4141.93548387,0,4147.74193548,0,4130.64516129,0,4135.48387097,0,4184.19354839,0,4167.74193548,0,4199.35483871,0,4146.4516129,0,0,0,?
2018-01-26 08:37:50.282000,4168.70967742,0,4130.96774194,0,4148.70967742,0,4154.51612903,0,4131.61290323,0,4149.35483871,0,4136.4516129,0,4130.64516129,0,4142.90322581,0,4135.16129032,0,4179.35483871,0,4162.58064516,0,4197.41935484,0,4148.38709677,0,0,0,?
2018-01-26 08:37:50.285000,4140.32258065,0,4169.35483871,0,4157.09677419,0,4146.77419355,0,4144.19354839,0,4153.22580645,0,4140.96774194,0,4137.41935484,0,4170.64516129,0,4144.51612903,0,4163.87096774,0,4176.77419355,0,4185.80645161,0,4175.48387097,0,0,0,?
2018-01-26 08:37:50.296000,4178.70967742,0,4179.03225806,0,4137.09677419,0,4172.58064516,0,4132.58064516,0,4164.83870968,0,4137.09677419,0,4133.87096774,0,4164.19354839,0,4135.48387097,0,4173.22580645,0,4177.41935484,0,4192.58064516,0,4141.61290323,0,0,0,?
2018-01-26 08:37:50.298000,4144.83870968,0,4162.25806452,0,4157.41935484,0,4178.38709677,0,4139.35483871,0,4171.29032258,0,4143.5483871,0,4143.5483871,0,4176.4516129,0,4138.70967742,0,4185.16129032,0,4165.48387097,0,4190.0,0,4135.16129032,0,0,0,?
2018-01-26 08:37:50.314000,4153.5483871,0,4161.29032258,0,4165.80645161,0,4168.06451613,0,4132.25806452,0,4161.93548387,0,4146.77419355,0,4142.25806452,0,4141.93548387,0,4146.4516129,0,4187.09677419,0,4172.90322581,0,4189.35483871,0,4154.83870968,0,0,0,?
2018-01-26 08:37:50.317000,4158.06451613,0,4171.93548387,0,4176.77419355,0,4153.5483871,0,4141.93548387,0,4167.41935484,0,4155.16129032,0,4158.70967742,0,4163.22580645,0,4163.87096774,0,4198.06451613,0,4143.87096774,0,4206.77419355,0,4160.32258065,0,0,0,?
2018-01-26 08:37:50.328000,4176.12903226,0,4169.03225806,0,4176.12903226,0,4187.41935484,0,4164.83870968,0,4180.96774194,0,4160.96774194,0,4185.80645161,0,4181.93548387,0,4170.0,0,4202.90322581,0,4141.61290323,0,4203.22580645,0,4132.58064516,0,0,0,?
2018-01-26 08:37:50.331000,4184.51612903,0,4138.06451613,0,4146.12903226,0,4140.96774194,0,4148.06451613,0,4170.0,0,4145.80645161,0,4167.41935484,0,4162.58064516,0,4159.35483871,0,4200.32258065,0,4130.32258065,0,4197.74193548,0,4160.32258065,0,0,0,?
2018-01-26 08:37:50.348000,4156.4516129,0,4131.29032258,0,4167.74193548,0,4140.0,0,4150.0,0,4155.80645161,0,4148.70967742,0,4158.06451613,0,4170.64516129,0,4158.06451613,0,4194.83870968,0,4177.74193548,0,4203.5483871,0,4143.87096774,0,0,0,?
2018-01-26 08:37:50.350000,4150.0,0,4129.67741935,0,4170.64516129,0,4150.64516129,0,4154.51612903,0,4150.32258065,0,4141.61290323,0,4148.06451613,0,4158.06451613,0,4152.58064516,0,4183.87096774,0,4169.67741935,0,4204.83870968,0,4134.19354839,0,0,0,?
2018-01-26 08:37:50.359000,4165.16129032,0,4134.19354839,0,4145.48387097,0,4148.06451613,0,4158.06451613,0,4156.4516129,0,4131.93548387,0,4145.48387097,0,4144.51612903,0,4150.96774194,0,4183.22580645,0,4170.64516129,0,4199.03225806,0,4158.06451613,0,0,0,?
2018-01-26 08:37:50.362000,4173.5483871,0,4170.64516129,0,4146.77419355,0,4157.09677419,0,4151.61290323,0,4162.25806452,0,4142.25806452,0,4155.48387097,0,4141.61290323,0,4131.61290323,0,4188.06451613,0,4172.25806452,0,4194.83870968,0,4150.64516129,0,0,0,?
2018-01-26 08:37:50.374000,4168.06451613,0,4132.58064516,0,4149.03225806,0,4173.22580645,0,4177.41935484,0,4164.51612903,0,4140.32258065,0,4145.80645161,0,4162.90322581,0,4174.51612903,0,4189.67741935,0,4164.51612903,0,4201.93548387,0,4165.80645161,0,0,0,?
2018-01-26 08:37:50.377000,4146.77419355,0,4170.96774194,0,4141.61290323,0,4149.03225806,0,4142.90322581,0,4167.41935484,0,4139.03225806,0,4150.64516129,0,4175.16129032,0,4154.51612903,0,4186.4516129,0,4173.22580645,0,4195.16129032,0,4148.70967742,0,0,0,?
2018-01-26 08:37:50.389000,4135.48387097,0,4164.51612903,0,4173.87096774,0,4156.4516129,0,4136.77419355,0,4149.03225806,0,4134.19354839,0,4141.29032258,0,4163.22580645,0,4142.25806452,0,4176.4516129,0,4172.90322581,0,4190.64516129,0,4136.12903226,0,0,0,?
2018-01-26 08:37:50.391000,4167.09677419,0,4177.09677419,0,4139.35483871,0,4154.51612903,0,4171.61290323,0,4140.64516129,0,4135.48387097,0,4134.83870968,0,4162.25806452,0,4177.41935484,0,4180.96774194,0,4164.19354839,0,4210.0,0,4146.4516129,0,0,0,?
2018-01-26 08:37:50.407000,4132.58064516,0,4161.93548387,0,4158.38709677,0,4169.03225806,0,4141.29032258,0,4149.67741935,0,4140.96774194,0,4147.74193548,0,4158.06451613,0,4153.22580645,0,4188.70967742,0,4129.35483871,0,4209.03225806,0,4136.77419355,0,0,0,?
2018-01-26 08:37:50.408000,4163.5483871,0,4173.87096774,0,4161.61290323,0,4151.29032258,0,4140.64516129,0,4150.64516129,0,4139.03225806,0,4140.0,0,4154.83870968,0,4172.25806452,0,4192.90322581,0,4131.29032258,0,4200.64516129,0,4162.25806452,0,0,0,?
2018-01-26 08:37:50.421000,4145.16129032,0,4132.90322581,0,4197.09677419,0,4168.70967742,0,4144.51612903,0,4156.4516129,0,4157.09677419,0,4152.25806452,0,4151.93548387,0,4163.22580645,0,4198.70967742,0,4171.93548387,0,4203.22580645,0,4151.61290323,0,0,0,?
2018-01-26 08:37:50.423000,4142.58064516,0,4131.29032258,0,4170.32258065,0,4167.74193548,0,4135.48387097,0,4149.67741935,0,4149.35483871,0,4148.70967742,0,4164.83870968,0,4130.32258065,0,4194.19354839,0,4174.19354839,0,4201.29032258,0,4149.67741935,0,0,0,?
2018-01-26 08:37:50.441000,4181.93548387,0,4133.5483871,0,4136.4516129,0,4153.5483871,0,4137.41935484,0,4148.38709677,0,4134.19354839,0,4137.41935484,0,4161.61290323,0,4135.16129032,0,4187.41935484,0,4176.77419355,0,4205.80645161,0,4169.67741935,0,0,0,?
2018-01-26 08:37:50.445000,4131.61290323,0,4176.12903226,0,4190.96774194,0,4133.22580645,0,4162.90322581,0,4161.61290323,0,4151.93548387,0,4159.67741935,0,4196.12903226,0,4160.64516129,0,4181.29032258,0,4178.38709677,0,4205.48387097,0,4137.74193548,0,0,0,?
2018-01-26 08:37:50.453000,4157.09677419,0,4145.48387097,0,4162.58064516,0,4169.35483871,0,4140.32258065,0,4155.48387097,0,4144.83870968,0,4149.67741935,0,4180.32258065,0,4154.83870968,0,4189.03225806,0,4134.51612903,0,4200.64516129,0,4155.48387097,0,0,0,?
2018-01-26 08:37:50.458000,4158.70967742,0,4145.80645161,0,4195.48387097,0,4163.87096774,0,4135.80645161,0,4145.16129032,0,4135.80645161,0,4139.67741935,0,4134.51612903,0,4148.38709677,0,4190.32258065,0,4136.12903226,0,4203.87096774,0,4164.19354839,0,0,0,?
2018-01-26 08:37:50.471000,4141.29032258,0,4138.06451613,0,4170.64516129,0,4187.74193548,0,4139.35483871,0,4142.90322581,0,4134.51612903,0,4158.06451613,0,4138.70967742,0,4137.09677419,0,4169.03225806,0,4160.64516129,0,4203.87096774,0,4141.29032258,0,0,0,?
2018-01-26 08:37:50.474000,4168.06451613,0,4144.83870968,0,4174.51612903,0,4149.35483871,0,4130.64516129,0,4151.29032258,0,4131.61290323,0,4188.06451613,0,4130.64516129,0,4139.35483871,0,4170.64516129,0,4157.41935484,0,4200.96774194,0,4142.90322581,0,0,0,?
2018-01-26 08:37:50.484000,4178.06451613,0,4132.25806452,0,4203.87096774,0,4172.25806452,0,4140.96774194,0,4156.77419355,0,4138.70967742,0,4202.58064516,0,4151.29032258,0,4153.22580645,0,4184.51612903,0,4173.22580645,0,4199.03225806,0,4178.70967742,0,0,0,?
2018-01-26 08:37:50.488000,4157.09677419,0,4143.5483871,0,4183.87096774,0,4158.38709677,0,4175.48387097,0,4147.74193548,0,4177.41935484,0,4166.4516129,0,4120.0,0,4135.80645161,0,4180.0,0,4162.90322581,0,4204.19354839,0,4161.93548387,0,0,0,?
2018-01-26 08:37:50.503000,4157.09677419,0,4141.61290323,0,4181.93548387,0,4157.74193548,0,4176.77419355,0,4148.38709677,0,4129.35483871,0,4172.58064516,0,4131.29032258,0,4130.0,0,4178.38709677,0,4169.03225806,0,4197.41935484,0,4175.16129032,0,0,0,?
2018-01-26 08:37:50.510000,4136.12903226,0,4176.4516129,0,4195.16129032,0,4160.32258065,0,4178.38709677,0,4148.70967742,0,4141.61290323,0,4195.48387097,0,4179.35483871,0,4140.32258065,0,4178.38709677,0,4132.90322581,0,4189.67741935,0,4156.12903226,0,0,0,?
2018-01-26 08:37:50.516000,4177.41935484,0,4133.87096774,0,4163.87096774,0,4133.87096774,0,4161.61290323,0,4138.06451613,0,4138.70967742,0,4178.06451613,0,4142.58064516,0,4143.87096774,0,4177.09677419,0,4129.03225806,0,4205.16129032,0,4160.32258065,0,0,0,?
2018-01-26 08:37:50.517000,4135.16129032,0,4177.41935484,0,4141.29032258,0,4131.61290323,0,4168.70967742,0,4138.70967742,0,4144.19354839,0,4185.80645161,0,4143.87096774,0,4142.58064516,0,4166.77419355,0,4178.70967742,0,4208.38709677,0,4133.22580645,0,0,0,?
2018-01-26 08:37:50.534000,4157.74193548,0,4138.38709677,0,4165.80645161,0,4169.03225806,0,4155.48387097,0,4130.96774194,0,4135.16129032,0,4185.48387097,0,4134.51612903,0,4135.48387097,0,4160.96774194,0,4129.03225806,0,4207.41935484,0,4141.61290323,0,0,0,?
2018-01-26 08:37:50.539000,4169.67741935,0,4138.38709677,0,4167.09677419,0,4143.22580645,0,4165.48387097,0,4175.80645161,0,4136.12903226,0,4188.38709677,0,4144.51612903,0,4148.70967742,0,4179.03225806,0,4177.41935484,0,4206.77419355,0,4146.12903226,0,0,0,?
2018-01-26 08:37:50.548000,4137.09677419,0,4172.58064516,0,4194.19354839,0,4174.83870968,0,4133.87096774,0,4131.93548387,0,4141.93548387,0,4198.06451613,0,4164.51612903,0,4154.51612903,0,4186.4516129,0,4133.5483871,0,4192.90322581,0,4137.74193548,0,0,0,?
2018-01-26 08:37:50.550000,4176.77419355,0,4138.38709677,0,4152.25806452,0,4161.29032258,0,4172.90322581,0,4129.67741935,0,4130.32258065,0,4181.29032258,0,4178.06451613,0,4142.25806452,0,4174.19354839,0,4140.96774194,0,4193.87096774,0,4162.58064516,0,0,0,?
2018-01-26 08:37:50.566000,4143.5483871,0,4179.03225806,0,4186.4516129,0,4153.5483871,0,4169.67741935,0,4130.96774194,0,4178.70967742,0,4165.80645161,0,4173.87096774,0,4131.93548387,0,4162.25806452,0,4175.16129032,0,4195.48387097,0,4136.77419355,0,0,0,?
2018-01-26 08:37:50.569000,4150.0,0,4169.35483871,0,4171.29032258,0,4142.90322581,0,4141.93548387,0,4173.22580645,0,4164.51612903,0,4144.83870968,0,4166.4516129,0,4167.74193548,0,4163.5483871,0,4160.0,0,4197.09677419,0,4130.64516129,0,0,0,?
2018-01-26 08:37:50.580000,4155.80645161,0,4173.87096774,0,4138.06451613,0,4164.51612903,0,4147.74193548,0,4168.38709677,0,4166.12903226,0,4158.38709677,0,4170.96774194,0,4178.38709677,0,4176.12903226,0,4129.67741935,0,4204.19354839,0,4133.5483871,0,0,0,?
2018-01-26 08:37:50.582000,4177.74193548,0,4175.80645161,0,4153.5483871,0,4146.77419355,0,4172.90322581,0,4179.03225806,0,4134.19354839,0,4175.48387097,0,4171.93548387,0,4134.51612903,0,4177.74193548,0,4140.64516129,0,4199.03225806,0,4132.25806452,0,0,0,?
2018-01-26 08:37:50.598000,4171.61290323,0,4134.83870968,0,4156.12903226,0,4137.41935484,0,4158.70967742,0,4176.77419355,0,4130.0,0,4157.74193548,0,4135.80645161,0,4174.19354839,0,4180.32258065,0,4138.70967742,0,4198.70967742,0,4167.41935484,0,0,0,?
2018-01-26 08:37:50.601000,4134.83870968,0,4165.48387097,0,4161.93548387,0,4137.74193548,0,4163.87096774,0,4178.70967742,0,4134.83870968,0,4170.64516129,0,4169.03225806,0,4136.77419355,0,4180.64516129,0,4145.48387097,0,4197.41935484,0,4140.32258065,0,0,0,?
2018-01-26 08:37:50.612000,4150.32258065,0,4166.4516129,0,4174.51612903,0,4143.5483871,0,4162.25806452,0,4130.0,0,4136.4516129,0,4183.22580645,0,4159.35483871,0,4144.83870968,0,4181.93548387,0,4145.48387097,0,4198.38709677,0,4135.16129032,0,0,0,?
2018-01-26 08:37:50.616000,4177.74193548,0,4176.4516129,0,4179.03225806,0,4157.41935484,0,4161.61290323,0,4177.09677419,0,4137.09677419,0,4181.29032258,0,4174.83870968,0,4142.58064516,0,4173.5483871,0,4146.77419355,0,4201.61290323,0,4154.83870968,0,0,0,?
2018-01-26 08:37:50.629000,4177.74193548,0,4163.87096774,0,4154.19354839,0,4139.03225806,0,4171.61290323,0,4178.06451613,0,4138.06451613,0,4177.74193548,0,4179.35483871,0,4137.09677419,0,4151.61290323,0,4141.29032258,0,4195.80645161,0,4179.03225806,0,0,0,?
2018-01-26 08:37:50.632000,4164.83870968,0,4175.80645161,0,4149.03225806,0,4153.5483871,0,4166.4516129,0,4134.19354839,0,4138.06451613,0,4167.09677419,0,4142.58064516,0,4141.29032258,0,4156.77419355,0,4132.58064516,0,4200.0,0,4144.19354839,0,0,0,?
2018-01-26 08:37:50.646000,4152.58064516,0,4172.58064516,0,4187.74193548,0,4188.06451613,0,4142.90322581,0,4144.83870968,0,4158.06451613,0,4184.51612903,0,4173.22580645,0,4139.03225806,0,4160.64516129,0,4142.58064516,0,4198.38709677,0,4147.09677419,0,0,0,?
2018-01-26 08:37:50.647000,4151.61290323,0,4172.90322581,0,4173.22580645,0,4182.58064516,0,4161.93548387,0,4148.38709677,0,4152.58064516,0,4184.83870968,0,4158.06451613,0,4174.19354839,0,4149.35483871,0,4144.19354839,0,4195.16129032,0,4150.0,0,0,0,?
2018-01-26 08:37:50.660000,4166.4516129,0,4169.35483871,0,4171.29032258,0,4164.51612903,0,4163.5483871,0,4161.93548387,0,4137.09677419,0,4180.64516129,0,4136.12903226,0,4137.74193548,0,4153.22580645,0,4135.48387097,0,4198.70967742,0,4151.61290323,0,0,0,?
2018-01-26 08:37:50.661000,4174.19354839,0,4146.4516129,0,4205.80645161,0,4174.19354839,0,4150.64516129,0,4158.70967742,0,4142.25806452,0,4193.22580645,0,4178.70967742,0,4132.90322581,0,4155.16129032,0,4136.77419355,0,4189.35483871,0,4137.74193548,0,0,0,?
2018-01-26 08:37:50.675000,4162.25806452,0,4168.70967742,0,4192.25806452,0,4149.67741935,0,4160.64516129,0,4141.29032258,0,4139.03225806,0,4185.80645161,0,4151.61290323,0,4166.77419355,0,4153.87096774,0,4141.93548387,0,4195.80645161,0,4168.70967742,0,0,0,?
2018-01-26 08:37:50.679000,4146.77419355,0,4175.48387097,0,4190.64516129,0,4165.80645161,0,4130.96774194,0,4151.93548387,0,4150.64516129,0,4204.51612903,0,4179.67741935,0,4144.51612903,0,4163.87096774,0,4152.25806452,0,4208.70967742,0,4150.32258065,0,0,0,?
2018-01-26 08:37:50.691000,4143.22580645,0,4171.61290323,0,4192.90322581,0,4135.80645161,0,4150.32258065,0,4149.03225806,0,4159.67741935,0,4203.87096774,0,4196.77419355,0,4154.83870968,0,4165.48387097,0,4152.58064516,0,4206.12903226,0,4135.80645161,0,0,0,?
2018-01-26 08:37:50.692000,4170.0,0,4176.4516129,0,4188.70967742,0,4173.87096774,0,4130.96774194,0,4129.03225806,0,4150.32258065,0,4176.12903226,0,4144.83870968,0,4146.4516129,0,4156.4516129,0,4140.32258065,0,4199.67741935,0,4153.5483871,0,0,0,?
2018-01-26 08:37:50.706000,4178.38709677,0,4161.29032258,0,4182.90322581,0,4153.5483871,0,4165.16129032,0,4170.96774194,0,4137.41935484,0,4163.87096774,0,4170.0,0,4137.74193548,0,4147.41935484,0,4134.19354839,0,4192.25806452,0,4179.03225806,0,0,0,?
2018-01-26 08:37:50.707000,4168.06451613,0,4167.41935484,0,4161.29032258,0,4140.32258065,0,4154.19354839,0,4170.0,0,4172.90322581,0,4141.29032258,0,4137.09677419,0,4170.64516129,0,4149.03225806,0,4175.48387097,0,4193.5483871,0,4136.77419355,0,0,0,?
2018-01-26 08:37:50.722000,4151.93548387,0,4163.22580645,0,4166.12903226,0,4145.48387097,0,4149.03225806,0,4138.06451613,0,4138.70967742,0,4164.19354839,0,4165.48387097,0,4129.03225806,0,4155.48387097,0,4130.96774194,0,4194.51612903,0,4138.70967742,0,0,0,?
2018-01-26 08:37:50.725000,4137.74193548,0,4174.19354839,0,4147.41935484,0,4158.06451613,0,4160.64516129,0,4148.38709677,0,4147.41935484,0,4189.67741935,0,4174.19354839,0,4139.03225806,0,4152.25806452,0,4147.74193548,0,4191.61290323,0,4146.4516129,0,0,0,?
2018-01-26 08:37:50.739000,4181.93548387,0,4141.29032258,0,4144.19354839,0,4161.93548387,0,4142.25806452,0,4145.16129032,0,4137.41935484,0,4183.22580645,0,4181.93548387,0,4138.38709677,0,4149.35483871,0,4140.0,0,4194.51612903,0,4162.58064516,0,0,0,?
2018-01-26 08:37:50.740000,4135.16129032,0,4173.87096774,0,4209.03225806,0,4179.67741935,0,4160.96774194,0,4155.48387097,0,4144.19354839,0,4192.25806452,0,4161.93548387,0,4143.5483871,0,4150.0,0,4171.93548387,0,4192.58064516,0,4130.64516129,0,0,0,?
2018-01-26 08:37:50.755000,4162.90322581,0,4140.64516129,0,4180.0,0,4172.90322581,0,4151.93548387,0,4147.74193548,0,4142.90322581,0,4186.77419355,0,4176.4516129,0,4140.64516129,0,4147.09677419,0,4130.64516129,0,4198.38709677,0,4138.38709677,0,0,0,?
2018-01-26 08:37:50.758000,4170.96774194,0,4146.77419355,0,4193.87096774,0,4169.67741935,0,4150.96774194,0,4131.29032258,0,4152.25806452,0,4188.70967742,0,4169.03225806,0,4150.0,0,4138.70967742,0,4148.06451613,0,4200.32258065,0,4134.19354839,0,0,0,?
2018-01-26 08:37:50.769000,4149.67741935,0,4135.16129032,0,4167.09677419,0,4138.38709677,0,4160.32258065,0,4140.32258065,0,4156.77419355,0,4191.29032258,0,4186.12903226,0,4151.93548387,0,4138.70967742,0,4140.32258065,0,4190.0,0,4178.06451613,0,0,0,?
2018-01-26 08:37:50.772000,4177.41935484,0,4139.67741935,0,4174.51612903,0,4130.0,0,4152.90322581,0,4155.16129032,0,4151.93548387,0,4184.51612903,0,4143.5483871,0,4144.83870968,0,4153.5483871,0,4138.38709677,0,4192.58064516,0,4153.5483871,0,0,0,?
2018-01-26 08:37:50.788000,4136.12903226,0,4170.96774194,0,4170.0,0,4185.16129032,0,4149.03225806,0,4150.32258065,0,4159.03225806,0,4187.74193548,0,4151.93548387,0,4145.80645161,0,4149.03225806,0,4146.12903226,0,4192.25806452,0,4131.93548387,0,0,0,?
2018-01-26 08:37:50.789000,4169.03225806,0,4176.77419355,0,4141.29032258,0,4160.96774194,0,4139.03225806,0,4177.74193548,0,4144.19354839,0,4168.38709677,0,4133.87096774,0,4141.61290323,0,4137.41935484,0,4145.48387097,0,4187.41935484,0,4140.32258065,0,0,0,?
2018-01-26 08:37:50.800000,4176.12903226,0,4135.80645161,0,4172.25806452,0,4136.77419355,0,4146.12903226,0,4174.19354839,0,4136.4516129,0,4165.80645161,0,4176.77419355,0,4143.22580645,0,4145.48387097,0,4143.22580645,0,4191.93548387,0,4145.80645161,0,0,0,?
2018-01-26 08:37:50.804000,4138.70967742,0,4174.51612903,0,4187.41935484,0,4139.03225806,0,4133.87096774,0,4131.61290323,0,4138.38709677,0,4165.16129032,0,4140.96774194,0,4134.19354839,0,4150.32258065,0,4131.61290323,0,4193.5483871,0,4137.09677419,0,0,0,?
2018-01-26 08:37:50.818000,4173.22580645,0,4131.93548387,0,4150.0,0,4171.61290323,0,4131.61290323,0,4138.38709677,0,4135.80645161,0,4159.35483871,0,4137.41935484,0,4135.16129032,0,4147.74193548,0,4133.22580645,0,4194.51612903,0,4157.09677419,0,0,0,?
2018-01-26 08:37:50.822000,4141.29032258,0,4177.74193548,0,4167.09677419,0,4156.4516129,0,4171.29032258,0,4149.67741935,0,4151.93548387,0,4187.74193548,0,4151.61290323,0,4145.80645161,0,4146.77419355,0,4150.96774194,0,4183.22580645,0,4131.93548387,0,0,0,?
2018-01-26 08:37:50.832000,4159.03225806,0,4129.03225806,0,4171.61290323,0,4167.09677419,0,4155.48387097,0,4143.5483871,0,4155.80645161,0,4184.83870968,0,4131.29032258,0,4133.22580645,0,4150.32258065,0,4146.4516129,0,4176.77419355,0,4146.12903226,0,0,0,?
2018-01-26 08:37:50.834000,4168.06451613,0,4174.19354839,0,4156.12903226,0,4147.41935484,0,4151.29032258,0,4148.70967742,0,4157.41935484,0,4178.38709677,0,4137.74193548,0,4135.48387097,0,4155.80645161,0,4139.35483871,0,4188.38709677,0,4160.64516129,0,0,0,?
2018-01-26 08:37:50.851000,4135.48387097,0,4167.41935484,0,4157.74193548,0,4176.4516129,0,4168.70967742,0,4154.83870968,0,4164.51612903,0,4184.19354839,0,4147.74193548,0,4131.61290323,0,4153.87096774,0,4141.29032258,0,4188.70967742,0,4132.58064516,0,0,0,?
2018-01-26 08:37:50.854000,4173.22580645,0,4130.0,0,4152.58064516,0,4161.29032258,0,4139.35483871,0,4140.0,0,4153.5483871,0,4169.35483871,0,4157.74193548,0,4173.5483871,0,4162.25806452,0,4140.96774194,0,4184.51612903,0,4142.25806452,0,0,0,?
2018-01-26 08:37:50.863000,4142.25806452,0,4167.09677419,0,4151.93548387,0,4154.51612903,0,4144.83870968,0,4139.35483871,0,4151.29032258,0,4170.64516129,0,4161.61290323,0,4134.83870968,0,4170.32258065,0,4149.03225806,0,4182.25806452,0,4132.58064516,0,0,0,?
2018-01-26 08:37:50.867000,4156.77419355,0,4173.22580645,0,4129.35483871,0,4151.93548387,0,4148.70967742,0,4141.29032258,0,4148.70967742,0,4167.09677419,0,4131.29032258,0,4177.41935484,0,4163.22580645,0,4144.83870968,0,4190.32258065,0,4143.22580645,0,0,0,?
2018-01-26 08:37:50.880000,4172.58064516,0,4137.09677419,0,4143.5483871,0,4134.51612903,0,4150.96774194,0,4145.80645161,0,4155.80645161,0,4176.12903226,0,4151.61290323,0,4178.06451613,0,4161.29032258,0,4133.22580645,0,4199.35483871,0,4151.93548387,0,0,0,?
2018-01-26 08:37:50.883000,4140.32258065,0,4131.61290323,0,4180.96774194,0,4153.5483871,0,4165.48387097,0,4153.5483871,0,4165.16129032,0,4188.38709677,0,4147.74193548,0,4152.25806452,0,4156.12903226,0,4138.70967742,0,4196.4516129,0,4132.58064516,0,0,0,?
2018-01-26 08:37:50.895000,4179.67741935,0,4142.90322581,0,4177.74193548,0,4144.19354839,0,4147.09677419,0,4148.70967742,0,4150.0,0,4168.38709677,0,4172.25806452,0,4161.29032258,0,4154.19354839,0,4146.77419355,0,4198.38709677,0,4150.32258065,0,0,0,?
2018-01-26 08:37:50.898000,4141.29032258,0,4175.80645161,0,4155.16129032,0,4138.06451613,0,4143.5483871,0,4143.5483871,0,4148.06451613,0,4166.77419355,0,4142.90322581,0,4140.96774194,0,4150.96774194,0,4143.22580645,0,4190.0,0,4132.25806452,0,0,0,?
2018-01-26 08:37:50.912000,4146.77419355,0,4167.41935484,0,4169.67741935,0,4173.22580645,0,4145.16129032,0,4149.03225806,0,4148.06451613,0,4167.41935484,0,4178.06451613,0,4172.90322581,0,4141.61290323,0,4134.19354839,0,4184.19354839,0,4134.83870968,0,0,0,?
2018-01-26 08:37:50.918000,4174.83870968,0,4177.41935484,0,4138.06451613,0,4158.38709677,0,4154.83870968,0,4165.16129032,0,4158.70967742,0,4181.29032258,0,4143.5483871,0,4146.4516129,0,4147.09677419,0,4149.03225806,0,4201.93548387,0,4152.90322581,0,0,0,?
2018-01-26 08:37:50.927000,4129.03225806,0,4171.29032258,0,4157.09677419,0,4150.32258065,0,4148.06451613,0,4159.67741935,0,4167.41935484,0,4194.51612903,0,4182.58064516,0,4150.0,0,4147.74193548,0,4154.51612903,0,4202.25806452,0,4138.70967742,0,0,0,?
2018-01-26 08:37:50.929000,4159.67741935,0,4176.77419355,0,4167.09677419,0,4159.67741935,0,4166.4516129,0,4134.51612903,0,4144.19354839,0,4170.0,0,4174.19354839,0,4170.32258065,0,4141.29032258,0,4130.96774194,0,4197.74193548,0,4149.03225806,0,0,0,?
2018-01-26 08:37:50.944000,4139.03225806,0,4161.29032258,0,4169.35483871,0,4157.41935484,0,4138.70967742,0,4142.90322581,0,4152.90322581,0,4172.25806452,0,4151.29032258,0,4132.90322581,0,4139.67741935,0,4131.61290323,0,4197.41935484,0,4177.74193548,0,0,0,?
2018-01-26 08:37:50.947000,4142.25806452,0,4157.09677419,0,4133.22580645,0,4155.48387097,0,4134.51612903,0,4155.48387097,0,4164.83870968,0,4175.80645161,0,4176.12903226,0,4143.22580645,0,4143.22580645,0,4146.77419355,0,4193.5483871,0,4134.51612903,0,0,0,?
2018-01-26 08:37:50.958000,4170.0,0,4172.90322581,0,4132.90322581,0,4110.32258065,0,4166.77419355,0,4137.74193548,0,4152.90322581,0,4169.35483871,0,4156.77419355,0,4132.25806452,0,4145.48387097,0,4147.41935484,0,4194.19354839,0,4156.77419355,0,0,0,?
2018-01-26 08:37:50.960000,4129.67741935,0,4170.32258065,0,4132.90322581,0,4132.58064516,0,4138.38709677,0,4173.22580645,0,4137.74193548,0,4166.4516129,0,4156.77419355,0,4178.70967742,0,4141.61290323,0,4136.12903226,0,4190.0,0,4129.03225806,0,0,0,?
2018-01-26 08:37:50.974000,4170.64516129,0,4133.5483871,0,4177.74193548,0,4164.51612903,0,4140.96774194,0,4129.03225806,0,4129.35483871,0,4137.74193548,0,4134.83870968,0,4132.58064516,0,4143.87096774,0,4131.93548387,0,4189.03225806,0,4148.70967742,0,0,0,?
2018-01-26 08:37:50.977000,4147.09677419,0,4129.03225806,0,4153.5483871,0,4138.06451613,0,4147.09677419,0,4149.03225806,0,4151.93548387,0,4149.67741935,0,4143.22580645,0,4149.03225806,0,4136.12903226,0,4143.5483871,0,4190.96774194,0,4146.12903226,0,0,0,?
2018-01-26 08:37:50.988000,4179.03225806,0,4173.5483871,0,4148.38709677,0,4139.67741935,0,4131.93548387,0,4143.5483871,0,4149.03225806,0,4165.16129032,0,4174.51612903,0,4141.61290323,0,4172.90322581,0,4146.4516129,0,4194.83870968,0,4175.16129032,0,0,0,?
2018-01-26 08:37:50.990000,4168.06451613,0,4129.03225806,0,4174.83870968,0,4143.22580645,0,4163.22580645,0,4178.38709677,0,4140.0,0,4158.38709677,0,4162.25806452,0,4129.35483871,0,4170.96774194,0,4139.67741935,0,4193.87096774,0,4133.5483871,0,0,0,?
2018-01-26 08:37:51.006000,4129.67741935,0,4175.16129032,0,4148.06451613,0,4151.61290323,0,4139.67741935,0,4136.4516129,0,4164.83870968,0,4170.96774194,0,4146.12903226,0,4132.25806452,0,4163.87096774,0,4130.64516129,0,4181.61290323,0,4177.74193548,0,0,0,?
2018-01-26 08:37:51.008000,4156.77419355,0,4141.93548387,0,4153.87096774,0,4138.06451613,0,4149.03225806,0,4146.12903226,0,4156.77419355,0,4168.06451613,0,4142.25806452,0,4137.41935484,0,4160.32258065,0,4170.32258065,0,4192.25806452,0,4150.32258065,0,0,0,?
2018-01-26 08:37:51.021000,4145.80645161,0,4174.51612903,0,4132.58064516,0,4157.09677419,0,4147.74193548,0,4151.29032258,0,4148.06451613,0,4168.38709677,0,4167.09677419,0,4144.83870968,0,4167.41935484,0,4178.70967742,0,4201.61290323,0,4136.12903226,0,0,0,?
2018-01-26 08:37:51.022000,4134.83870968,0,4164.83870968,0,4161.29032258,0,4153.87096774,0,4133.5483871,0,4143.87096774,0,4158.70967742,0,4158.06451613,0,4170.96774194,0,4129.67741935,0,4165.16129032,0,4133.87096774,0,4183.87096774,0,4172.58064516,0,0,0,?
2018-01-26 08:37:51.040000,4173.87096774,0,4137.41935484,0,4131.29032258,0,4133.22580645,0,4130.0,0,4135.80645161,0,4152.25806452,0,4144.83870968,0,4132.25806452,0,4171.93548387,0,4164.83870968,0,4172.90322581,0,4178.38709677,0,4148.06451613,0,0,0,?
2018-01-26 08:37:51.041000,4176.77419355,0,4173.5483871,0,4162.58064516,0,4179.67741935,0,4152.58064516,0,4146.77419355,0,4142.58064516,0,4163.87096774,0,4151.93548387,0,4129.03225806,0,4160.96774194,0,4173.87096774,0,4186.77419355,0,4177.09677419,0,0,0,?
2018-01-26 08:37:51.052000,4154.51612903,0,4130.96774194,0,4175.80645161,0,4147.09677419,0,4145.48387097,0,4150.0,0,4140.32258065,0,4160.96774194,0,4135.16129032,0,4176.77419355,0,4151.93548387,0,4141.29032258,0,4194.51612903,0,4141.61290323,0,0,0,?
2018-01-26 08:37:51.055000,4160.64516129,0,4138.38709677,0,4163.22580645,0,4160.0,0,4144.51612903,0,4143.22580645,0,4146.12903226,0,4146.4516129,0,4161.29032258,0,4178.70967742,0,4155.48387097,0,4148.06451613,0,4190.96774194,0,4143.87096774,0,0,0,?
2018-01-26 08:37:51.071000,4131.93548387,0,4174.19354839,0,4177.74193548,0,4153.87096774,0,4179.03225806,0,4175.16129032,0,4134.51612903,0,4177.41935484,0,4119.35483871,0,4175.48387097,0,4150.0,0,4135.16129032,0,4187.09677419,0,4174.51612903,0,0,0,?
2018-01-26 08:37:51.073000,4165.80645161,0,4177.74193548,0,4131.93548387,0,4168.06451613,0,4169.67741935,0,4136.12903226,0,4134.83870968,0,4132.25806452,0,4136.12903226,0,4136.4516129,0,4152.58064516,0,4139.03225806,0,4194.51612903,0,4142.90322581,0,0,0,?
2018-01-26 08:37:51.083000,4137.09677419,0,4165.16129032,0,4144.19354839,0,4140.32258065,0,4145.16129032,0,4166.12903226,0,4158.70967742,0,4170.32258065,0,4158.06451613,0,4144.83870968,0,4154.19354839,0,4157.74193548,0,4184.51612903,0,4175.80645161,0,0,0,?
2018-01-26 08:37:51.087000,4162.25806452,0,4167.74193548,0,4177.41935484,0,4138.06451613,0,4168.06451613,0,4142.58064516,0,4148.70967742,0,4152.25806452,0,4170.64516129,0,4170.0,0,4140.32258065,0,4148.38709677,0,4182.90322581,0,4133.87096774,0,0,0,?
2018-01-26 08:37:51.102000,4153.87096774,0,4163.5483871,0,4166.77419355,0,4142.25806452,0,4161.29032258,0,4176.12903226,0,4144.19354839,0,4138.38709677,0,4150.0,0,4170.32258065,0,4147.09677419,0,4141.93548387,0,4194.19354839,0,4134.19354839,0,0,0,?
2018-01-26 08:37:51.106000,4172.58064516,0,4147.09677419,0,4148.06451613,0,4131.29032258,0,4176.12903226,0,4139.35483871,0,4149.03225806,0,4151.61290323,0,4170.32258065,0,4179.03225806,0,4148.70967742,0,4140.96774194,0,4183.87096774,0,4165.48387097,0,0,0,?
2018-01-26 08:37:51.116000,4178.38709677,0,4159.03225806,0,4132.58064516,0,4161.29032258,0,4166.4516129,0,4130.96774194,0,4132.90322581,0,4141.61290323,0,4143.22580645,0,4179.03225806,0,4132.25806452,0,4131.93548387,0,4178.38709677,0,4131.29032258,0,0,0,?
2018-01-26 08:37:51.118000,4142.90322581,0,4155.48387097,0,4168.06451613,0,4131.93548387,0,4143.5483871,0,4178.38709677,0,4140.32258065,0,4150.96774194,0,4157.41935484,0,4140.64516129,0,4128.38709677,0,4130.32258065,0,4184.51612903,0,4164.19354839,0,0,0,?
2018-01-26 08:37:51.134000,4146.12903226,0,4164.19354839,0,4134.51612903,0,4175.48387097,0,4140.0,0,4130.64516129,0,4141.93548387,0,4143.5483871,0,4167.41935484,0,4134.83870968,0,4139.67741935,0,4137.09677419,0,4179.35483871,0,4173.87096774,0,0,0,?
2018-01-26 08:37:51.139000,4160.32258065,0,4168.70967742,0,4139.35483871,0,4147.41935484,0,4166.12903226,0,4177.74193548,0,4134.51612903,0,4140.0,0,4177.74193548,0,4179.03225806,0,4138.06451613,0,4146.77419355,0,4172.25806452,0,4130.32258065,0,0,0,?
2018-01-26 08:37:51.147000,4134.19354839,0,4162.58064516,0,4138.06451613,0,4167.41935484,0,4166.12903226,0,4174.19354839,0,4178.70967742,0,4151.93548387,0,4134.83870968,0,4179.03225806,0,4120.64516129,0,4139.67741935,0,4180.96774194,0,4174.83870968,0,0,0,?
2018-01-26 08:37:51.148000,4172.58064516,0,4177.74193548,0,4130.32258065,0,4149.67741935,0,4171.93548387,0,4171.61290323,0,4166.12903226,0,4134.83870968,0,4144.19354839,0,4177.09677419,0,4122.90322581,0,4176.4516129,0,4194.83870968,0,4155.80645161,0,0,0,?
2018-01-26 08:37:51.165000,4135.16129032,0,4166.12903226,0,4136.77419355,0,4169.35483871,0,4146.4516129,0,4178.70967742,0,4132.25806452,0,4131.93548387,0,4133.87096774,0,4129.35483871,0,4132.25806452,0,4132.90322581,0,4180.96774194,0,4135.16129032,0,0,0,?
2018-01-26 08:37:51.167000,4144.51612903,0,4169.03225806,0,4166.77419355,0,4136.12903226,0,4145.16129032,0,4132.25806452,0,4137.74193548,0,4139.03225806,0,4148.70967742,0,4163.5483871,0,4134.19354839,0,4135.16129032,0,4175.16129032,0,4141.29032258,0,0,0,?
2018-01-26 08:37:51.177000,4165.16129032,0,4168.38709677,0,4159.67741935,0,4163.22580645,0,4134.19354839,0,4138.06451613,0,4132.58064516,0,4152.58064516,0,4149.67741935,0,4158.70967742,0,4128.38709677,0,4133.5483871,0,4197.09677419,0,4150.96774194,0,0,0,?
2018-01-26 08:37:51.181000,4130.32258065,0,4141.61290323,0,4151.29032258,0,4143.5483871,0,4167.09677419,0,4131.93548387,0,4137.74193548,0,4155.80645161,0,4158.70967742,0,4168.70967742,0,4121.29032258,0,4134.83870968,0,4194.51612903,0,4169.03225806,0,0,0,?
