Timestamp,F3 Value,F3 Quality,FC5 Value,FC5 Quality,F7 Value,F7 Quality,T7 Value,T7 Quality,P7 Value,P7 Quality,O1 Value,O1 Quality,O2 Value,O2 Quality,P8 Value,P8 Quality,T8 Value,T8 Quality,F8 Value,F8 Quality,AF4 Value,AF4 Quality,FC6 Value,FC6 Quality,F4 Value,F4 Quality,AF3 Value,AF3 Quality,X Value,Y Value,Z Value
2018-01-26 08:12:39.605000,4188.38709677,0,4135.48387097,0,4071.29032258,0,4003.87096774,0,4144.83870968,0,4145.80645161,0,4204.83870968,0,4159.03225806,0,4058.38709677,0,4363.5483871,0,4194.19354839,0,4148.06451613,0,4248.38709677,0,4150.0,0,0,0,?
2018-01-26 08:12:39.608000,4190.32258065,0,4132.90322581,0,4056.4516129,0,3960.32258065,0,4156.77419355,0,4167.09677419,0,4177.74193548,0,4161.29032258,0,4048.38709677,0,4377.09677419,0,4191.29032258,0,4143.22580645,0,4252.90322581,0,4149.35483871,0,0,0,?
2018-01-26 08:12:39.612000,4168.38709677,0,4129.35483871,0,4050.0,0,3976.77419355,0,4169.35483871,0,4135.80645161,0,4185.80645161,0,4167.41935484,0,4053.87096774,0,4393.87096774,0,4204.83870968,0,4154.19354839,0,4246.12903226,0,4144.83870968,0,0,0,?
2018-01-26 08:12:39.620000,4195.48387097,0,4146.12903226,0,4058.70967742,0,3986.4516129,0,4173.5483871,0,4174.19354839,0,4192.58064516,0,4161.29032258,0,4074.83870968,0,4387.74193548,0,4210.64516129,0,4163.87096774,0,4249.67741935,0,4141.93548387,0,0,0,?
2018-01-26 08:12:39.626000,4196.12903226,0,4144.19354839,0,4024.83870968,0,3969.35483871,0,4168.06451613,0,4160.0,0,4178.70967742,0,4171.29032258,0,4059.67741935,0,4372.25806452,0,4207.41935484,0,4161.61290323,0,4265.48387097,0,4178.06451613,0,0,0,?
2018-01-26 08:12:39.634000,4180.64516129,0,4129.67741935,0,4033.5483871,0,3962.25806452,0,4178.38709677,0,4162.90322581,0,4167.41935484,0,4170.0,0,4067.41935484,0,4370.96774194,0,4166.77419355,0,4162.25806452,0,4270.64516129,0,4133.22580645,0,0,0,?
2018-01-26 08:12:39.638000,4206.12903226,0,4139.03225806,0,4075.16129032,0,3967.09677419,0,4185.16129032,0,4161.29032258,0,4210.32258065,0,4143.5483871,0,4061.29032258,0,4343.5483871,0,4170.32258065,0,4163.5483871,0,4259.03225806,0,4144.83870968,0,0,0,?
2018-01-26 08:12:39.647000,4181.29032258,0,4139.67741935,0,4077.74193548,0,3972.25806452,0,4181.93548387,0,4157.41935484,0,4205.16129032,0,4144.83870968,0,4064.51612903,0,4362.25806452,0,4166.77419355,0,4162.90322581,0,4261.29032258,0,4130.32258065,0,0,0,?
2018-01-26 08:12:39.653000,4181.29032258,0,4124.83870968,0,4015.16129032,0,3952.90322581,0,4164.83870968,0,4147.74193548,0,4199.67741935,0,4147.41935484,0,4059.03225806,0,4356.4516129,0,4166.12903226,0,4158.06451613,0,4257.74193548,0,4137.09677419,0,0,0,?
2018-01-26 08:12:39.662000,4193.22580645,0,4103.87096774,0,4037.41935484,0,3940.32258065,0,4155.16129032,0,4122.90322581,0,4194.51612903,0,4135.48387097,0,4048.70967742,0,4346.4516129,0,4172.58064516,0,4154.19354839,0,4250.96774194,0,4131.61290323,0,0,0,?
2018-01-26 08:12:39.670000,4183.87096774,0,4097.41935484,0,4018.38709677,0,3945.16129032,0,4155.48387097,0,4102.25806452,0,4183.5483871,0,4128.70967742,0,4034.83870968,0,4306.4516129,0,4176.77419355,0,4151.93548387,0,4263.22580645,0,4166.77419355,0,0,0,?
2018-01-26 08:12:39.677000,4203.22580645,0,4111.93548387,0,3992.58064516,0,3945.48387097,0,4152.25806452,0,4102.90322581,0,4169.67741935,0,4125.16129032,0,4011.93548387,0,4304.19354839,0,4180.64516129,0,4156.77419355,0,4271.61290323,0,4178.38709677,0,0,0,?
2018-01-26 08:12:39.687000,4189.03225806,0,4114.19354839,0,4050.0,0,3950.32258065,0,4170.32258065,0,4115.16129032,0,4170.96774194,0,4138.38709677,0,4040.0,0,4356.12903226,0,4190.64516129,0,4168.06451613,0,4268.06451613,0,4174.83870968,0,0,0,?
2018-01-26 08:12:39.694000,4200.0,0,4119.67741935,0,4032.90322581,0,3944.83870968,0,4178.38709677,0,4102.25806452,0,4160.64516129,0,4139.35483871,0,4060.64516129,0,4352.90322581,0,4184.19354839,0,4161.29032258,0,4261.93548387,0,4175.80645161,0,0,0,?
2018-01-26 08:12:39.699000,4207.74193548,0,4124.19354839,0,4044.51612903,0,3942.25806452,0,4168.38709677,0,4127.41935484,0,4143.22580645,0,4118.70967742,0,4020.64516129,0,4332.90322581,0,4177.41935484,0,4153.5483871,0,4265.48387097,0,4176.12903226,0,0,0,?
2018-01-26 08:12:39.707000,4188.06451613,0,4111.61290323,0,4010.32258065,0,3956.4516129,0,4165.48387097,0,4125.80645161,0,4147.41935484,0,4114.83870968,0,4000.32258065,0,4338.38709677,0,4193.87096774,0,4154.83870968,0,4228.06451613,0,4169.03225806,0,0,0,?
2018-01-26 08:12:39.715000,4211.29032258,0,4103.5483871,0,4044.83870968,0,3971.29032258,0,4171.93548387,0,4130.0,0,4151.61290323,0,4127.09677419,0,4028.70967742,0,4294.19354839,0,4200.32258065,0,4152.25806452,0,4226.12903226,0,4133.5483871,0,0,0,?
2018-01-26 08:12:39.725000,4196.77419355,0,4098.06451613,0,4018.38709677,0,3981.61290323,0,4184.83870968,0,4123.5483871,0,4143.22580645,0,4131.93548387,0,4041.61290323,0,4297.09677419,0,4195.48387097,0,4165.80645161,0,4271.61290323,0,4131.29032258,0,0,0,?
2018-01-26 08:12:39.731000,4191.29032258,0,4099.67741935,0,4039.67741935,0,3955.80645161,0,4157.41935484,0,4103.22580645,0,4169.35483871,0,4105.48387097,0,4035.16129032,0,4304.19354839,0,4194.51612903,0,4166.12903226,0,4270.32258065,0,4176.12903226,0,0,0,?
2018-01-26 08:12:39.738000,4203.22580645,0,4106.77419355,0,4044.19354839,0,3949.03225806,0,4138.70967742,0,4091.29032258,0,4160.64516129,0,4143.5483871,0,4023.87096774,0,4319.03225806,0,4194.83870968,0,4157.74193548,0,4226.77419355,0,4172.25806452,0,0,0,?
2018-01-26 08:12:39.748000,4190.32258065,0,4114.83870968,0,4050.64516129,0,3980.0,0,4171.61290323,0,4105.48387097,0,4130.32258065,0,4121.61290323,0,4046.12903226,0,4328.06451613,0,4201.93548387,0,4176.12903226,0,4241.93548387,0,4174.83870968,0,0,0,?
2018-01-26 08:12:39.755000,4205.48387097,0,4125.16129032,0,4081.61290323,0,3970.32258065,0,4180.64516129,0,4110.96774194,0,4177.41935484,0,4136.77419355,0,4077.41935484,0,4320.32258065,0,4212.90322581,0,4180.64516129,0,4250.64516129,0,4145.16129032,0,0,0,?
2018-01-26 08:12:39.761000,4194.83870968,0,4122.58064516,0,4035.16129032,0,3957.74193548,0,4168.38709677,0,4099.67741935,0,4166.4516129,0,4143.22580645,0,4033.87096774,0,4294.51612903,0,4226.12903226,0,4179.03225806,0,4269.67741935,0,4135.48387097,0,0,0,?
2018-01-26 08:12:39.768000,4204.83870968,0,4126.12903226,0,4044.51612903,0,3960.96774194,0,4167.74193548,0,4085.48387097,0,4159.67741935,0,4143.5483871,0,4081.93548387,0,4294.19354839,0,4227.09677419,0,4189.35483871,0,4273.87096774,0,4132.25806452,0,0,0,?
2018-01-26 08:12:39.780000,4170.96774194,0,4140.0,0,4070.96774194,0,3961.93548387,0,4177.41935484,0,4074.51612903,0,4144.19354839,0,4137.41935484,0,4078.70967742,0,4317.09677419,0,4220.96774194,0,4202.25806452,0,4253.22580645,0,4136.77419355,0,0,0,?
2018-01-26 08:12:39.786000,4191.93548387,0,4134.19354839,0,4061.29032258,0,3968.38709677,0,4171.93548387,0,4107.74193548,0,4131.61290323,0,4147.09677419,0,4036.77419355,0,4301.93548387,0,4221.61290323,0,4202.58064516,0,4252.25806452,0,4176.77419355,0,0,0,?
2018-01-26 08:12:39.792000,4210.0,0,4132.90322581,0,4067.41935484,0,3967.74193548,0,4146.12903226,0,4088.70967742,0,4113.87096774,0,4149.67741935,0,4060.32258065,0,4280.96774194,0,4223.22580645,0,4180.64516129,0,4258.38709677,0,4137.74193548,0,0,0,?
2018-01-26 08:12:39.801000,4207.74193548,0,4131.93548387,0,4051.29032258,0,3977.74193548,0,4152.90322581,0,4091.61290323,0,4109.03225806,0,4146.12903226,0,4040.96774194,0,4292.90322581,0,4230.64516129,0,4173.87096774,0,4259.67741935,0,4131.29032258,0,0,0,?
2018-01-26 08:12:39.810000,4194.83870968,0,4121.29032258,0,4063.22580645,0,3974.51612903,0,4151.29032258,0,4078.38709677,0,4139.35483871,0,4149.67741935,0,4033.22580645,0,4316.4516129,0,4222.25806452,0,4170.96774194,0,4248.38709677,0,4170.32258065,0,0,0,?
2018-01-26 08:12:39.816000,4209.67741935,0,4107.09677419,0,4073.87096774,0,3962.90322581,0,4132.90322581,0,4046.77419355,0,4099.67741935,0,4168.70967742,0,4007.41935484,0,4288.38709677,0,4205.80645161,0,4148.70967742,0,4231.29032258,0,4176.77419355,0,0,0,?
2018-01-26 08:12:39.823000,4195.48387097,0,4100.96774194,0,4045.48387097,0,3985.16129032,0,4150.64516129,0,4047.41935484,0,4092.58064516,0,4135.16129032,0,4009.35483871,0,4254.83870968,0,4218.38709677,0,4147.41935484,0,4236.4516129,0,4176.4516129,0,0,0,?
2018-01-26 08:12:39.831000,4164.19354839,0,4119.03225806,0,4060.64516129,0,3986.12903226,0,4158.06451613,0,4054.83870968,0,4097.09677419,0,4163.22580645,0,4019.35483871,0,4277.09677419,0,4233.5483871,0,4162.58064516,0,4236.77419355,0,4138.70967742,0,0,0,?
2018-01-26 08:12:39.841000,4209.35483871,0,4122.25806452,0,4056.4516129,0,3980.0,0,4150.32258065,0,4051.93548387,0,4098.38709677,0,4156.12903226,0,4029.67741935,0,4289.35483871,0,4227.09677419,0,4171.29032258,0,4271.61290323,0,4129.67741935,0,0,0,?
2018-01-26 08:12:39.847000,4197.41935484,0,4116.4516129,0,4067.74193548,0,4002.25806452,0,4158.70967742,0,4047.41935484,0,4092.25806452,0,4158.06451613,0,4024.51612903,0,4304.19354839,0,4229.35483871,0,4164.19354839,0,4269.35483871,0,4170.0,0,0,0,?
2018-01-26 08:12:39.857000,4161.93548387,0,4124.83870968,0,4058.38709677,0,4013.5483871,0,4181.29032258,0,4040.0,0,4088.70967742,0,4131.61290323,0,4007.74193548,0,4236.12903226,0,4240.64516129,0,4149.67741935,0,4235.16129032,0,4132.58064516,0,0,0,?
2018-01-26 08:12:39.864000,4185.16129032,0,4112.25806452,0,4078.06451613,0,4016.4516129,0,4205.80645161,0,4049.03225806,0,4101.93548387,0,4138.06451613,0,4037.41935484,0,4204.83870968,0,4237.74193548,0,4147.74193548,0,4236.12903226,0,4173.87096774,0,0,0,?
2018-01-26 08:12:39.874000,4194.83870968,0,4101.29032258,0,4080.0,0,3989.67741935,0,4189.35483871,0,4052.25806452,0,4105.48387097,0,4158.38709677,0,4071.29032258,0,4170.32258065,0,4223.5483871,0,4150.0,0,4261.29032258,0,4172.25806452,0,0,0,?
2018-01-26 08:12:39.881000,4189.67741935,0,4103.5483871,0,4060.96774194,0,4026.4516129,0,4170.96774194,0,4079.67741935,0,4098.38709677,0,4159.67741935,0,4077.41935484,0,4161.93548387,0,4222.90322581,0,4146.12903226,0,4260.96774194,0,4171.29032258,0,0,0,?
2018-01-26 08:12:39.886000,4174.51612903,0,4103.22580645,0,4039.67741935,0,4026.4516129,0,4166.77419355,0,4058.06451613,0,4079.67741935,0,4150.32258065,0,4079.03225806,0,4171.93548387,0,4231.93548387,0,4145.80645161,0,4230.64516129,0,4172.25806452,0,0,0,?
2018-01-26 08:12:39.894000,4203.5483871,0,4104.51612903,0,4075.48387097,0,4016.4516129,0,4150.96774194,0,4050.32258065,0,4066.4516129,0,4137.41935484,0,4034.51612903,0,4170.64516129,0,4230.64516129,0,4152.25806452,0,4231.29032258,0,4137.41935484,0,0,0,?
2018-01-26 08:12:39.906000,4186.77419355,0,4101.61290323,0,4070.32258065,0,4038.06451613,0,4157.41935484,0,4038.06451613,0,4074.83870968,0,4139.67741935,0,4044.19354839,0,4149.35483871,0,4240.64516129,0,4157.09677419,0,4274.19354839,0,4174.83870968,0,0,0,?
2018-01-26 08:12:39.912000,4189.03225806,0,4099.67741935,0,4089.03225806,0,4024.19354839,0,4161.29032258,0,4025.80645161,0,4068.06451613,0,4133.87096774,0,4036.77419355,0,4145.16129032,0,4242.90322581,0,4146.12903226,0,4264.51612903,0,4168.06451613,0,0,0,?
2018-01-26 08:12:39.918000,4194.19354839,0,4097.41935484,0,4048.70967742,0,4018.06451613,0,4168.38709677,0,4036.4516129,0,4111.61290323,0,4137.09677419,0,4053.5483871,0,4167.74193548,0,4231.29032258,0,4149.67741935,0,4263.87096774,0,4166.77419355,0,0,0,?
2018-01-26 08:12:39.926000,4177.09677419,0,4102.58064516,0,4063.5483871,0,4000.0,0,4186.4516129,0,4042.25806452,0,4075.16129032,0,4154.19354839,0,4080.64516129,0,4165.16129032,0,4237.09677419,0,4161.61290323,0,4270.32258065,0,4162.25806452,0,0,0,?
2018-01-26 08:12:39.937000,4197.09677419,0,4115.16129032,0,4104.19354839,0,4012.25806452,0,4178.70967742,0,4030.32258065,0,4085.80645161,0,4151.93548387,0,4068.06451613,0,4163.22580645,0,4243.22580645,0,4160.0,0,4262.58064516,0,4176.12903226,0,0,0,?
2018-01-26 08:12:39.943000,4183.87096774,0,4107.09677419,0,4106.4516129,0,4020.0,0,4180.96774194,0,4033.5483871,0,4087.09677419,0,4154.83870968,0,4080.32258065,0,4159.67741935,0,4237.74193548,0,4177.41935484,0,4257.41935484,0,4171.61290323,0,0,0,?
2018-01-26 08:12:39.950000,4186.12903226,0,4101.61290323,0,4077.41935484,0,4019.03225806,0,4178.70967742,0,4024.51612903,0,4071.29032258,0,4156.77419355,0,4101.29032258,0,4156.77419355,0,4239.35483871,0,4189.03225806,0,4260.0,0,4170.96774194,0,0,0,?
2018-01-26 08:12:39.958000,4190.96774194,0,4103.87096774,0,4054.19354839,0,4017.09677419,0,4156.4516129,0,4006.4516129,0,4112.90322581,0,4154.51612903,0,4086.77419355,0,4154.83870968,0,4208.38709677,0,4178.70967742,0,4263.5483871,0,4172.25806452,0,0,0,?
2018-01-26 08:12:39.968000,4168.70967742,0,4093.5483871,0,4061.29032258,0,4027.09677419,0,4156.12903226,0,4014.51612903,0,4069.35483871,0,4153.22580645,0,4067.74193548,0,4162.90322581,0,4211.61290323,0,4172.90322581,0,4258.70967742,0,4166.4516129,0,0,0,?
2018-01-26 08:12:39.974000,4183.87096774,0,4092.25806452,0,4063.22580645,0,4011.61290323,0,4166.4516129,0,4010.96774194,0,4097.74193548,0,4135.48387097,0,4055.48387097,0,4167.41935484,0,4234.51612903,0,4164.83870968,0,4233.87096774,0,4177.09677419,0,0,0,?
2018-01-26 08:12:39.981000,4169.03225806,0,4095.16129032,0,4052.58064516,0,4008.06451613,0,4165.80645161,0,4041.61290323,0,4078.38709677,0,4131.93548387,0,4081.93548387,0,4175.16129032,0,4234.51612903,0,4163.5483871,0,4224.83870968,0,4167.09677419,0,0,0,?
2018-01-26 08:12:39.989000,4171.93548387,0,4103.87096774,0,4077.41935484,0,4017.74193548,0,4163.87096774,0,4047.09677419,0,4096.4516129,0,4145.48387097,0,4064.83870968,0,4136.77419355,0,4200.0,0,4172.25806452,0,4236.4516129,0,4158.38709677,0,0,0,?
2018-01-26 08:12:39.999000,4181.61290323,0,4109.03225806,0,4080.0,0,4014.19354839,0,4191.93548387,0,4011.61290323,0,4065.16129032,0,4159.35483871,0,4072.90322581,0,4144.51612903,0,4194.51612903,0,4184.51612903,0,4240.64516129,0,4161.29032258,0,0,0,?
2018-01-26 08:12:40.007000,4155.48387097,0,4100.32258065,0,4094.51612903,0,4013.22580645,0,4206.12903226,0,4045.48387097,0,4103.22580645,0,4160.32258065,0,4067.09677419,0,4129.03225806,0,4230.64516129,0,4181.93548387,0,4232.25806452,0,4163.87096774,0,0,0,?
2018-01-26 08:12:40.013000,4185.16129032,0,4104.19354839,0,4033.22580645,0,4018.38709677,0,4181.29032258,0,4017.74193548,0,4080.64516129,0,4140.64516129,0,4086.77419355,0,4159.67741935,0,4229.67741935,0,4161.29032258,0,4216.4516129,0,4132.25806452,0,0,0,?
2018-01-26 08:12:40.020000,4182.90322581,0,4109.67741935,0,4092.90322581,0,4027.41935484,0,4185.16129032,0,4015.16129032,0,4085.16129032,0,4137.74193548,0,4090.96774194,0,4139.67741935,0,4196.77419355,0,4166.12903226,0,4223.22580645,0,4173.22580645,0,0,0,?
2018-01-26 08:12:40.031000,4171.29032258,0,4118.38709677,0,4077.09677419,0,4026.12903226,0,4193.22580645,0,4015.16129032,0,4087.09677419,0,4140.0,0,4112.58064516,0,4180.0,0,4205.80645161,0,4180.64516129,0,4228.06451613,0,4167.41935484,0,0,0,?
2018-01-26 08:12:40.038000,4177.74193548,0,4120.64516129,0,4064.19354839,0,4030.32258065,0,4179.03225806,0,4011.61290323,0,4075.48387097,0,4129.03225806,0,4093.22580645,0,4177.41935484,0,4200.64516129,0,4177.09677419,0,4210.96774194,0,4172.90322581,0,0,0,?
2018-01-26 08:12:40.044000,4144.51612903,0,4100.96774194,0,4043.22580645,0,4028.06451613,0,4170.32258065,0,4008.06451613,0,4073.5483871,0,4121.29032258,0,4079.35483871,0,4161.93548387,0,4240.32258065,0,4171.93548387,0,4201.29032258,0,4151.93548387,0,0,0,?
2018-01-26 08:12:40.052000,4160.32258065,0,4095.80645161,0,4068.70967742,0,4003.22580645,0,4159.03225806,0,3997.09677419,0,4063.87096774,0,4115.16129032,0,4088.70967742,0,4160.64516129,0,4224.83870968,0,4170.64516129,0,4199.35483871,0,4156.4516129,0,0,0,?
2018-01-26 08:12:40.062000,4165.80645161,0,4100.32258065,0,4111.93548387,0,4011.93548387,0,4168.38709677,0,4006.4516129,0,4063.87096774,0,4131.93548387,0,4094.83870968,0,4179.35483871,0,4230.64516129,0,4192.25806452,0,4212.25806452,0,4171.93548387,0,0,0,?
2018-01-26 08:12:40.068000,4158.38709677,0,4100.96774194,0,4111.29032258,0,4027.09677419,0,4176.4516129,0,4001.61290323,0,4065.80645161,0,4144.19354839,0,4076.77419355,0,4162.90322581,0,4199.03225806,0,4207.74193548,0,4213.5483871,0,4131.29032258,0,0,0,?
2018-01-26 08:12:40.075000,4173.87096774,0,4107.41935484,0,4062.90322581,0,4026.77419355,0,4170.64516129,0,3975.16129032,0,4048.38709677,0,4131.29032258,0,4098.38709677,0,4168.38709677,0,4206.12903226,0,4190.96774194,0,4240.64516129,0,4178.06451613,0,0,0,?
2018-01-26 08:12:40.083000,4153.87096774,0,4106.77419355,0,4106.77419355,0,4048.06451613,0,4181.93548387,0,3982.58064516,0,4053.22580645,0,4141.29032258,0,4112.58064516,0,4141.61290323,0,4202.58064516,0,4185.80645161,0,4243.5483871,0,4159.35483871,0,0,0,?
2018-01-26 08:12:40.094000,4165.80645161,0,4118.38709677,0,4100.96774194,0,4063.5483871,0,4190.32258065,0,3994.51612903,0,4066.77419355,0,4156.4516129,0,4113.5483871,0,4188.06451613,0,4240.96774194,0,4202.90322581,0,4206.4516129,0,4178.38709677,0,0,0,?
2018-01-26 08:12:40.102000,4166.12903226,0,4132.58064516,0,4115.16129032,0,4078.38709677,0,4187.41935484,0,3979.67741935,0,4065.80645161,0,4163.22580645,0,4091.93548387,0,4210.0,0,4237.09677419,0,4170.32258065,0,4199.35483871,0,4131.61290323,0,0,0,?
2018-01-26 08:12:40.107000,4151.61290323,0,4126.4516129,0,4145.16129032,0,4037.74193548,0,4169.03225806,0,4014.19354839,0,4061.29032258,0,4161.61290323,0,4102.90322581,0,4196.12903226,0,4195.16129032,0,4166.4516129,0,4243.5483871,0,4166.12903226,0,0,0,?
2018-01-26 08:12:40.116000,4168.38709677,0,4132.90322581,0,4124.51612903,0,4032.90322581,0,4168.06451613,0,3969.03225806,0,4055.48387097,0,4155.48387097,0,4122.25806452,0,4237.41935484,0,4199.35483871,0,4164.51612903,0,4198.70967742,0,4173.87096774,0,0,0,?
2018-01-26 08:12:40.127000,4152.58064516,0,4141.61290323,0,4150.0,0,4046.12903226,0,4204.19354839,0,3985.80645161,0,4059.67741935,0,4172.25806452,0,4099.67741935,0,4239.35483871,0,4199.03225806,0,4178.06451613,0,4202.25806452,0,4168.70967742,0,0,0,?
2018-01-26 08:12:40.132000,4157.74193548,0,4136.77419355,0,4125.16129032,0,4037.09677419,0,4193.22580645,0,3978.70967742,0,4050.32258065,0,4176.12903226,0,4135.16129032,0,4198.38709677,0,4234.51612903,0,4165.16129032,0,4231.93548387,0,4165.80645161,0,0,0,?
2018-01-26 08:12:40.139000,4152.90322581,0,4122.90322581,0,4143.22580645,0,4069.03225806,0,4160.0,0,4006.4516129,0,4037.74193548,0,4164.83870968,0,4109.67741935,0,4197.09677419,0,4226.77419355,0,4203.22580645,0,4207.41935484,0,4160.0,0,0,0,?
2018-01-26 08:12:40.147000,4133.5483871,0,4120.32258065,0,4121.93548387,0,4075.16129032,0,4153.5483871,0,3989.03225806,0,4039.67741935,0,4158.06451613,0,4119.67741935,0,4203.22580645,0,4233.22580645,0,4210.64516129,0,4205.80645161,0,4157.41935484,0,0,0,?
2018-01-26 08:12:40.158000,4150.96774194,0,4123.87096774,0,4103.87096774,0,4071.29032258,0,4157.41935484,0,3979.67741935,0,4080.64516129,0,4149.67741935,0,4102.58064516,0,4210.32258065,0,4226.12903226,0,4205.16129032,0,4202.58064516,0,4163.87096774,0,0,0,?
2018-01-26 08:12:40.164000,4134.51612903,0,4115.80645161,0,4158.38709677,0,4033.22580645,0,4183.22580645,0,3980.32258065,0,4072.58064516,0,4164.83870968,0,4095.48387097,0,4209.35483871,0,4220.96774194,0,4205.80645161,0,4202.90322581,0,4146.77419355,0,0,0,?
2018-01-26 08:12:40.171000,4148.70967742,0,4130.96774194,0,4131.61290323,0,4050.0,0,4187.09677419,0,3969.03225806,0,4073.22580645,0,4129.03225806,0,4131.61290323,0,4176.12903226,0,4227.74193548,0,4164.83870968,0,4208.70967742,0,4155.48387097,0,0,0,?
2018-01-26 08:12:40.179000,4155.48387097,0,4130.64516129,0,4118.38709677,0,4046.12903226,0,4158.06451613,0,3964.19354839,0,4032.58064516,0,4173.5483871,0,4108.06451613,0,4208.06451613,0,4229.03225806,0,4172.90322581,0,4207.41935484,0,4173.5483871,0,0,0,?
2018-01-26 08:12:40.190000,4173.87096774,0,4106.4516129,0,4100.96774194,0,4040.96774194,0,4149.67741935,0,3965.80645161,0,4042.90322581,0,4169.35483871,0,4100.64516129,0,4205.80645161,0,4223.87096774,0,4184.19354839,0,4200.0,0,4163.22580645,0,0,0,?
2018-01-26 08:12:40.197000,4143.22580645,0,4125.16129032,0,4144.51612903,0,4036.4516129,0,4155.48387097,0,3984.19354839,0,4081.61290323,0,4178.06451613,0,4140.64516129,0,4171.93548387,0,4229.67741935,0,4184.51612903,0,4201.61290323,0,4163.87096774,0,0,0,?
2018-01-26 08:12:40.203000,4139.67741935,0,4144.51612903,0,4168.38709677,0,4043.87096774,0,4154.19354839,0,3946.4516129,0,4063.5483871,0,4144.51612903,0,4102.58064516,0,4191.61290323,0,4239.35483871,0,4182.58064516,0,4210.32258065,0,4161.29032258,0,0,0,?
2018-01-26 08:12:40.211000,4143.5483871,0,4120.32258065,0,4112.90322581,0,4039.35483871,0,4130.32258065,0,3935.80645161,0,4052.90322581,0,4170.32258065,0,4134.19354839,0,4130.64516129,0,4228.06451613,0,4173.5483871,0,4197.09677419,0,4166.77419355,0,0,0,?
2018-01-26 08:12:40.222000,4155.16129032,0,4103.22580645,0,4103.5483871,0,4038.06451613,0,4130.0,0,3943.87096774,0,4075.16129032,0,4144.83870968,0,4120.64516129,0,4135.48387097,0,4219.35483871,0,4166.4516129,0,4189.35483871,0,4159.67741935,0,0,0,?
2018-01-26 08:12:40.228000,4131.29032258,0,4127.41935484,0,4117.09677419,0,4053.5483871,0,4160.64516129,0,3945.80645161,0,4055.80645161,0,4166.77419355,0,4144.83870968,0,4170.96774194,0,4224.19354839,0,4173.22580645,0,4188.70967742,0,4140.64516129,0,0,0,?
2018-01-26 08:12:40.235000,4142.25806452,0,4097.41935484,0,4151.93548387,0,4049.35483871,0,4146.4516129,0,3926.12903226,0,4043.22580645,0,4166.12903226,0,4118.38709677,0,4148.06451613,0,4213.87096774,0,4171.93548387,0,4172.58064516,0,4156.77419355,0,0,0,?
2018-01-26 08:12:40.243000,4131.29032258,0,4127.41935484,0,4124.19354839,0,4049.67741935,0,4171.93548387,0,3916.4516129,0,4039.35483871,0,4149.67741935,0,4088.38709677,0,4136.77419355,0,4212.58064516,0,4179.67741935,0,4175.80645161,0,4156.12903226,0,0,0,?
2018-01-26 08:12:40.253000,4138.06451613,0,4129.03225806,0,4100.32258065,0,4068.38709677,0,4136.77419355,0,3931.93548387,0,4063.22580645,0,4153.5483871,0,4101.93548387,0,4116.77419355,0,4232.25806452,0,4185.16129032,0,4179.67741935,0,4150.96774194,0,0,0,?
2018-01-26 08:12:40.260000,4159.03225806,0,4112.25806452,0,4145.80645161,0,4093.5483871,0,4164.83870968,0,3940.64516129,0,4071.93548387,0,4168.38709677,0,4129.35483871,0,4147.09677419,0,4231.61290323,0,4182.58064516,0,4171.61290323,0,4160.64516129,0,0,0,?
2018-01-26 08:12:40.266000,4131.61290323,0,4115.48387097,0,4176.4516129,0,4098.06451613,0,4173.5483871,0,3942.58064516,0,4069.03225806,0,4132.90322581,0,4110.0,0,4152.90322581,0,4221.29032258,0,4190.32258065,0,4173.22580645,0,4156.12903226,0,0,0,?
2018-01-26 08:12:40.274000,4143.22580645,0,4111.29032258,0,4122.58064516,0,4082.90322581,0,4154.51612903,0,3955.80645161,0,4067.09677419,0,4179.03225806,0,4119.35483871,0,4136.77419355,0,4228.70967742,0,4191.61290323,0,4172.90322581,0,4161.61290323,0,0,0,?
2018-01-26 08:12:40.282000,4144.19354839,0,4120.0,0,4117.74193548,0,4098.38709677,0,4149.03225806,0,3954.19354839,0,4074.83870968,0,4172.25806452,0,4129.67741935,0,4140.96774194,0,4236.12903226,0,4192.25806452,0,4182.58064516,0,4159.67741935,0,0,0,?
2018-01-26 08:12:40.291000,4135.48387097,0,4121.29032258,0,4113.22580645,0,4096.77419355,0,4151.61290323,0,3930.0,0,4064.83870968,0,4167.09677419,0,4130.64516129,0,4101.93548387,0,4221.93548387,0,4191.93548387,0,4182.90322581,0,4153.22580645,0,0,0,?
2018-01-26 08:12:40.297000,4142.58064516,0,4111.29032258,0,4104.51612903,0,4067.74193548,0,4150.0,0,3930.32258065,0,4044.19354839,0,4165.80645161,0,4110.32258065,0,4100.32258065,0,4210.0,0,4179.35483871,0,4203.87096774,0,4143.22580645,0,0,0,?
2018-01-26 08:12:40.305000,4164.83870968,0,4103.5483871,0,4155.80645161,0,4072.90322581,0,4151.93548387,0,3948.06451613,0,4042.58064516,0,4167.09677419,0,4102.58064516,0,4135.16129032,0,4214.19354839,0,4167.09677419,0,4201.29032258,0,4135.16129032,0,0,0,?
2018-01-26 08:12:40.316000,4130.32258065,0,4103.87096774,0,4133.87096774,0,4070.0,0,4170.96774194,0,3928.70967742,0,4078.38709677,0,4148.06451613,0,4128.70967742,0,4132.25806452,0,4211.29032258,0,4209.03225806,0,4164.51612903,0,4154.19354839,0,0,0,?
2018-01-26 08:12:40.322000,4170.64516129,0,4124.83870968,0,4140.96774194,0,4081.29032258,0,4130.32258065,0,3947.74193548,0,4062.58064516,0,4152.90322581,0,4097.09677419,0,4239.03225806,0,4183.87096774,0,4164.83870968,0,4168.70967742,0,4144.83870968,0,0,0,?
2018-01-26 08:12:40.328000,4170.64516129,0,4124.83870968,0,4140.96774194,0,4081.29032258,0,4130.32258065,0,3947.74193548,0,4062.58064516,0,4152.90322581,0,4097.09677419,0,4239.03225806,0,4183.87096774,0,4164.83870968,0,4168.70967742,0,4144.83870968,0,0,0,?
2018-01-26 08:12:40.336000,4170.64516129,0,4124.83870968,0,4140.96774194,0,4081.29032258,0,4130.32258065,0,3947.74193548,0,4062.58064516,0,4152.90322581,0,4097.09677419,0,4239.03225806,0,4183.87096774,0,4164.83870968,0,4168.70967742,0,4144.83870968,0,0,0,?
2018-01-26 08:12:40.346000,4170.64516129,0,4124.83870968,0,4140.96774194,0,4081.29032258,0,4130.32258065,0,3947.74193548,0,4062.58064516,0,4152.90322581,0,4097.09677419,0,4239.03225806,0,4183.87096774,0,4164.83870968,0,4168.70967742,0,4144.83870968,0,0,0,?
2018-01-26 08:12:40.353000,4154.83870968,0,4144.83870968,0,4140.96774194,0,4110.0,0,4157.09677419,0,3970.32258065,0,4030.64516129,0,4164.19354839,0,4107.41935484,0,4239.03225806,0,4183.87096774,0,4166.12903226,0,4177.41935484,0,4140.32258065,0,0,0,?
2018-01-26 08:12:40.359000,4154.83870968,0,4144.83870968,0,4154.19354839,0,4110.0,0,4157.09677419,0,3970.32258065,0,4030.64516129,0,4164.19354839,0,4107.41935484,0,4207.41935484,0,4181.29032258,0,4166.12903226,0,4177.41935484,0,4140.32258065,0,0,0,?
2018-01-26 08:12:40.367000,4154.83870968,0,4144.83870968,0,4154.19354839,0,4110.0,0,4157.09677419,0,3970.32258065,0,4030.64516129,0,4164.19354839,0,4107.41935484,0,4207.41935484,0,4181.29032258,0,4166.12903226,0,4177.41935484,0,4140.32258065,0,0,0,?
2018-01-26 08:12:40.378000,4154.83870968,0,4144.83870968,0,4154.19354839,0,4110.0,0,4157.09677419,0,3970.32258065,0,4030.64516129,0,4164.19354839,0,4107.41935484,0,4207.41935484,0,4181.29032258,0,4166.12903226,0,4177.41935484,0,4140.32258065,0,0,0,?
2018-01-26 08:12:40.385000,4154.83870968,0,4144.83870968,0,4154.19354839,0,4110.0,0,4157.09677419,0,3970.32258065,0,4030.64516129,0,4164.19354839,0,4107.41935484,0,4207.41935484,0,4181.29032258,0,4166.12903226,0,4177.41935484,0,4140.32258065,0,0,0,?
2018-01-26 08:12:40.391000,4154.83870968,0,4144.83870968,0,4154.19354839,0,4110.0,0,4157.09677419,0,3970.32258065,0,4030.64516129,0,4164.19354839,0,4107.41935484,0,4207.41935484,0,4181.29032258,0,4166.12903226,0,4177.41935484,0,4140.32258065,0,0,0,?
2018-01-26 08:12:40.400000,4154.83870968,0,4144.83870968,0,4154.19354839,0,4110.0,0,4157.09677419,0,3970.32258065,0,4030.64516129,0,4164.19354839,0,4107.41935484,0,4207.41935484,0,4181.29032258,0,4166.12903226,0,4177.41935484,0,4140.32258065,0,0,0,?
2018-01-26 08:12:40.411000,4154.83870968,0,4144.83870968,0,4154.19354839,0,4110.0,0,4157.09677419,0,3970.32258065,0,4030.64516129,0,4164.19354839,0,4107.41935484,0,4207.41935484,0,4181.29032258,0,4166.12903226,0,4177.41935484,0,4140.32258065,0,0,0,?
2018-01-26 08:12:40.416000,4175.48387097,0,4152.58064516,0,4166.12903226,0,4105.16129032,0,4177.09677419,0,3946.12903226,0,4001.61290323,0,4128.38709677,0,4126.12903226,0,4200.64516129,0,4177.74193548,0,4202.90322581,0,4157.09677419,0,4141.61290323,0,0,0,?
2018-01-26 08:12:40.422000,4158.06451613,0,4124.51612903,0,4176.12903226,0,4106.77419355,0,4167.41935484,0,3978.70967742,0,4017.74193548,0,4106.4516129,0,4120.64516129,0,4240.96774194,0,4184.51612903,0,4204.19354839,0,4150.64516129,0,4130.96774194,0,0,0,?
2018-01-26 08:12:40.430000,4162.58064516,0,4104.83870968,0,4138.38709677,0,4070.96774194,0,4177.74193548,0,3943.5483871,0,4031.61290323,0,4100.32258065,0,4130.64516129,0,4233.87096774,0,4179.03225806,0,4203.5483871,0,4153.5483871,0,4126.4516129,0,0,0,?
2018-01-26 08:12:40.441000,4169.67741935,0,4111.93548387,0,4139.03225806,0,4112.90322581,0,4167.09677419,0,3956.12903226,0,4036.4516129,0,4135.16129032,0,4125.16129032,0,4218.70967742,0,4210.96774194,0,4195.80645161,0,4136.12903226,0,4124.83870968,0,0,0,?
2018-01-26 08:12:40.447000,4138.06451613,0,4110.0,0,4161.61290323,0,4100.0,0,4165.16129032,0,3954.51612903,0,4050.0,0,4135.80645161,0,4124.51612903,0,4194.19354839,0,4197.41935484,0,4188.70967742,0,4172.25806452,0,4116.77419355,0,0,0,?
2018-01-26 08:12:40.455000,4155.16129032,0,4100.64516129,0,4115.48387097,0,4088.70967742,0,4134.51612903,0,3970.0,0,4053.22580645,0,4099.67741935,0,4123.5483871,0,4237.09677419,0,4189.35483871,0,4170.0,0,4174.19354839,0,4119.35483871,0,0,0,?
2018-01-26 08:12:40.462000,4149.03225806,0,4145.48387097,0,4106.4516129,0,4090.64516129,0,4143.5483871,0,3995.48387097,0,4077.09677419,0,4124.19354839,0,4101.29032258,0,4211.61290323,0,4204.83870968,0,4172.25806452,0,4132.25806452,0,4106.77419355,0,0,0,?
2018-01-26 08:12:40.472000,4148.06451613,0,4113.5483871,0,4146.4516129,0,4095.48387097,0,4164.83870968,0,3986.4516129,0,4040.96774194,0,4139.03225806,0,4129.67741935,0,4211.61290323,0,4167.74193548,0,4188.70967742,0,4174.51612903,0,4111.93548387,0,0,0,?
2018-01-26 08:12:40.478000,4158.38709677,0,4120.32258065,0,4130.32258065,0,4095.48387097,0,4156.12903226,0,3972.58064516,0,4071.61290323,0,4135.80645161,0,4129.35483871,0,4233.87096774,0,4201.61290323,0,4200.0,0,4163.5483871,0,4125.48387097,0,0,0,?
2018-01-26 08:12:40.485000,4140.96774194,0,4103.87096774,0,4146.12903226,0,4080.96774194,0,4158.70967742,0,3968.38709677,0,4061.61290323,0,4124.51612903,0,4115.16129032,0,4245.16129032,0,4202.25806452,0,4206.12903226,0,4171.61290323,0,4118.70967742,0,0,0,?
2018-01-26 08:12:40.493000,4162.25806452,0,4117.09677419,0,4175.48387097,0,4066.12903226,0,4120.96774194,0,3947.09677419,0,4065.16129032,0,4109.35483871,0,4099.03225806,0,4164.51612903,0,4163.5483871,0,4196.12903226,0,4177.09677419,0,4124.83870968,0,0,0,?
2018-01-26 08:12:40.505000,4149.03225806,0,4131.61290323,0,4180.64516129,0,4070.32258065,0,4143.87096774,0,3963.22580645,0,4075.80645161,0,4128.38709677,0,4130.64516129,0,4032.58064516,0,4209.03225806,0,4200.32258065,0,4131.61290323,0,4113.87096774,0,0,0,?
2018-01-26 08:12:40.511000,4142.58064516,0,4120.0,0,4160.0,0,4112.58064516,0,4139.35483871,0,3989.03225806,0,4037.74193548,0,4146.4516129,0,4160.96774194,0,4020.0,0,4205.80645161,0,4207.41935484,0,4135.16129032,0,4106.4516129,0,0,0,?
2018-01-26 08:12:40.517000,4167.41935484,0,4108.38709677,0,4148.06451613,0,4088.06451613,0,4169.35483871,0,3985.16129032,0,4041.29032258,0,4136.77419355,0,4136.12903226,0,4095.48387097,0,4204.83870968,0,4195.16129032,0,4131.29032258,0,4114.51612903,0,0,0,?
2018-01-26 08:12:40.525000,4144.19354839,0,4124.51612903,0,4197.09677419,0,4086.4516129,0,4129.03225806,0,4006.4516129,0,4043.22580645,0,4142.90322581,0,4132.58064516,0,4070.0,0,4200.64516129,0,4199.03225806,0,4130.96774194,0,4109.67741935,0,0,0,?
2018-01-26 08:12:40.537000,4154.83870968,0,4155.48387097,0,4179.67741935,0,4116.77419355,0,4178.70967742,0,3980.96774194,0,4051.61290323,0,4160.96774194,0,4173.22580645,0,4104.19354839,0,4203.87096774,0,4162.58064516,0,4136.12903226,0,4121.93548387,0,0,0,?
2018-01-26 08:12:40.544000,4152.90322581,0,4143.22580645,0,4146.12903226,0,4127.09677419,0,4183.87096774,0,4016.77419355,0,4061.61290323,0,4170.32258065,0,4155.48387097,0,4098.06451613,0,4209.03225806,0,4166.12903226,0,4148.70967742,0,4116.12903226,0,0,0,?
2018-01-26 08:12:40.549000,4138.70967742,0,4119.67741935,0,4185.16129032,0,4097.09677419,0,4143.22580645,0,3992.90322581,0,4048.70967742,0,4155.16129032,0,4173.5483871,0,4118.38709677,0,4197.09677419,0,4204.51612903,0,4145.16129032,0,4101.61290323,0,0,0,?
2018-01-26 08:12:40.557000,4148.70967742,0,4124.51612903,0,4162.25806452,0,4078.06451613,0,4166.77419355,0,3981.29032258,0,4032.90322581,0,4132.58064516,0,4122.58064516,0,4107.74193548,0,4192.58064516,0,4190.32258065,0,4173.87096774,0,4142.58064516,0,0,0,?
2018-01-26 08:12:40.566000,4127.41935484,0,4117.09677419,0,4144.19354839,0,4087.09677419,0,4166.4516129,0,3975.80645161,0,4039.35483871,0,4142.25806452,0,4135.80645161,0,4120.32258065,0,4196.12903226,0,4191.61290323,0,4167.74193548,0,4124.83870968,0,0,0,?
2018-01-26 08:12:40.574000,4144.83870968,0,4115.48387097,0,4127.74193548,0,4070.0,0,4161.93548387,0,3990.96774194,0,4037.41935484,0,4151.93548387,0,4150.64516129,0,4107.74193548,0,4179.03225806,0,4194.51612903,0,4164.83870968,0,4141.29032258,0,0,0,?
2018-01-26 08:12:40.582000,4153.22580645,0,4123.5483871,0,4170.96774194,0,4072.58064516,0,4175.48387097,0,3971.61290323,0,4042.58064516,0,4150.64516129,0,4144.51612903,0,4172.90322581,0,4173.87096774,0,4204.19354839,0,4165.16129032,0,4100.64516129,0,0,0,?
2018-01-26 08:12:40.590000,4137.41935484,0,4121.61290323,0,4170.64516129,0,4102.90322581,0,4140.96774194,0,3979.03225806,0,4057.41935484,0,4155.16129032,0,4156.4516129,0,4209.03225806,0,4180.0,0,4204.51612903,0,4170.64516129,0,4141.61290323,0,0,0,?
2018-01-26 08:12:40.600000,4153.87096774,0,4130.32258065,0,4169.67741935,0,4101.93548387,0,4177.74193548,0,3975.16129032,0,4046.4516129,0,4168.70967742,0,4168.38709677,0,4195.16129032,0,4177.41935484,0,4192.90322581,0,4169.35483871,0,4098.38709677,0,0,0,?
2018-01-26 08:12:40.606000,4144.51612903,0,4134.83870968,0,4177.09677419,0,4101.93548387,0,4172.58064516,0,3990.0,0,4040.64516129,0,4136.77419355,0,4170.96774194,0,4241.93548387,0,4187.41935484,0,4205.16129032,0,4169.03225806,0,4100.96774194,0,0,0,?
2018-01-26 08:12:40.612000,4155.16129032,0,4136.77419355,0,4196.12903226,0,4111.29032258,0,4178.38709677,0,3998.38709677,0,4047.41935484,0,4171.93548387,0,4162.58064516,0,4213.5483871,0,4189.35483871,0,4161.29032258,0,4167.41935484,0,4108.70967742,0,0,0,?
2018-01-26 08:12:40.620000,4151.29032258,0,4145.16129032,0,4197.41935484,0,4123.5483871,0,4176.77419355,0,3983.5483871,0,4064.83870968,0,4167.74193548,0,4176.77419355,0,4230.64516129,0,4181.61290323,0,4207.41935484,0,4170.0,0,4102.58064516,0,0,0,?
2018-01-26 08:12:40.635000,4134.19354839,0,4144.83870968,0,4168.06451613,0,4126.12903226,0,4155.80645161,0,3981.93548387,0,4083.87096774,0,4138.38709677,0,4129.35483871,0,4228.70967742,0,4180.0,0,4166.12903226,0,4166.4516129,0,4097.74193548,0,0,0,?
2018-01-26 08:12:40.637000,4150.0,0,4134.51612903,0,4141.29032258,0,4110.32258065,0,4146.77419355,0,3994.83870968,0,4075.48387097,0,4131.61290323,0,4160.0,0,4203.5483871,0,4180.64516129,0,4167.09677419,0,4153.87096774,0,4109.35483871,0,0,0,?
2018-01-26 08:12:40.644000,4127.41935484,0,4123.87096774,0,4166.12903226,0,4117.09677419,0,4177.09677419,0,3994.83870968,0,4063.5483871,0,4174.51612903,0,4140.32258065,0,4197.41935484,0,4185.16129032,0,4208.38709677,0,4155.16129032,0,4139.67741935,0,0,0,?
2018-01-26 08:12:40.651000,4140.64516129,0,4135.80645161,0,4174.83870968,0,4126.4516129,0,4133.22580645,0,3990.64516129,0,4064.83870968,0,4132.58064516,0,4161.93548387,0,4211.61290323,0,4186.4516129,0,4207.41935484,0,4155.48387097,0,4139.03225806,0,0,0,?
2018-01-26 08:12:40.661000,4151.29032258,0,4142.58064516,0,4170.64516129,0,4133.5483871,0,4137.09677419,0,4009.67741935,0,4077.74193548,0,4151.93548387,0,4167.09677419,0,4253.22580645,0,4184.19354839,0,4168.38709677,0,4157.74193548,0,4107.09677419,0,0,0,?
2018-01-26 08:12:40.669000,4117.09677419,0,4130.64516129,0,4209.03225806,0,4137.41935484,0,4145.80645161,0,4020.96774194,0,4080.32258065,0,4154.83870968,0,4180.96774194,0,4284.83870968,0,4187.74193548,0,4171.93548387,0,4163.5483871,0,4101.61290323,0,0,0,?
2018-01-26 08:12:40.674000,4135.16129032,0,4133.87096774,0,4190.0,0,4119.67741935,0,4164.83870968,0,3988.06451613,0,4060.96774194,0,4132.25806452,0,4171.61290323,0,4242.58064516,0,4181.29032258,0,4166.77419355,0,4149.35483871,0,4099.03225806,0,0,0,?
2018-01-26 08:12:40.682000,4128.06451613,0,4142.58064516,0,4155.16129032,0,4135.48387097,0,4167.74193548,0,3977.74193548,0,4070.32258065,0,4141.61290323,0,4178.38709677,0,4231.29032258,0,4166.4516129,0,4170.64516129,0,4140.0,0,4097.41935484,0,0,0,?
2018-01-26 08:12:40.694000,4123.5483871,0,4149.03225806,0,4204.19354839,0,4098.06451613,0,4133.5483871,0,3988.70967742,0,4081.61290323,0,4150.96774194,0,4174.83870968,0,4255.48387097,0,4158.06451613,0,4210.32258065,0,4135.48387097,0,4111.29032258,0,0,0,?
2018-01-26 08:12:40.700000,4136.12903226,0,4148.06451613,0,4198.06451613,0,4132.58064516,0,4168.70967742,0,3992.25806452,0,4078.06451613,0,4140.0,0,4161.61290323,0,4270.64516129,0,4160.0,0,4195.16129032,0,4125.16129032,0,4106.4516129,0,0,0,?
2018-01-26 08:12:40.707000,4129.67741935,0,4145.16129032,0,4182.25806452,0,4143.87096774,0,4172.25806452,0,4016.77419355,0,4090.64516129,0,4153.22580645,0,4187.74193548,0,4260.0,0,4160.32258065,0,4207.74193548,0,4133.87096774,0,4141.29032258,0,0,0,?
2018-01-26 08:12:40.715000,4151.61290323,0,4154.83870968,0,4156.12903226,0,4108.38709677,0,4176.4516129,0,4035.48387097,0,4093.87096774,0,4160.64516129,0,4192.25806452,0,4314.51612903,0,4153.22580645,0,4162.25806452,0,4139.03225806,0,4111.61290323,0,0,0,?
2018-01-26 08:12:40.726000,4127.09677419,0,4149.03225806,0,4166.77419355,0,4107.09677419,0,4169.67741935,0,4041.61290323,0,4097.09677419,0,4156.4516129,0,4185.80645161,0,4339.03225806,0,4153.87096774,0,4200.0,0,4128.06451613,0,4107.74193548,0,0,0,?
2018-01-26 08:12:40.732000,4112.25806452,0,4137.09677419,0,4192.58064516,0,4145.16129032,0,4150.96774194,0,4029.03225806,0,4107.09677419,0,4144.83870968,0,4187.74193548,0,4334.51612903,0,4150.96774194,0,4190.0,0,4112.90322581,0,4146.4516129,0,0,0,?
2018-01-26 08:12:40.739000,4132.90322581,0,4135.16129032,0,4197.09677419,0,4098.70967742,0,4137.41935484,0,4015.80645161,0,4102.90322581,0,4167.09677419,0,4165.16129032,0,4304.83870968,0,4144.51612903,0,4198.70967742,0,4107.09677419,0,4102.58064516,0,0,0,?
2018-01-26 08:12:40.747000,4117.09677419,0,4138.70967742,0,4146.4516129,0,4122.58064516,0,4157.41935484,0,4040.0,0,4087.74193548,0,4170.64516129,0,4159.35483871,0,4356.12903226,0,4155.80645161,0,4162.58064516,0,4130.0,0,4143.87096774,0,0,0,?
2018-01-26 08:12:40.756000,4128.70967742,0,4160.64516129,0,4193.22580645,0,4121.29032258,0,4135.16129032,0,4016.12903226,0,4078.70967742,0,4148.70967742,0,4201.29032258,0,4357.74193548,0,4157.41935484,0,4208.38709677,0,4145.16129032,0,4144.83870968,0,0,0,?
2018-01-26 08:12:40.763000,4119.67741935,0,4168.38709677,0,4193.5483871,0,4115.80645161,0,4141.61290323,0,4011.93548387,0,4101.29032258,0,4163.87096774,0,4190.0,0,4303.22580645,0,4145.80645161,0,4205.48387097,0,4130.64516129,0,4145.80645161,0,0,0,?
2018-01-26 08:12:40.769000,4113.5483871,0,4161.93548387,0,4172.25806452,0,4115.48387097,0,4164.83870968,0,4049.03225806,0,4114.19354839,0,4155.16129032,0,4177.09677419,0,4319.35483871,0,4139.35483871,0,4204.19354839,0,4109.35483871,0,4101.61290323,0,0,0,?
2018-01-26 08:12:40.778000,4133.5483871,0,4164.51612903,0,4161.93548387,0,4124.51612903,0,4156.12903226,0,4007.41935484,0,4099.03225806,0,4150.96774194,0,4209.67741935,0,4293.5483871,0,4134.83870968,0,4202.58064516,0,4104.19354839,0,4106.4516129,0,0,0,?
2018-01-26 08:12:40.789000,4114.83870968,0,4162.25806452,0,4169.67741935,0,4154.19354839,0,4170.32258065,0,4013.5483871,0,4091.29032258,0,4151.93548387,0,4161.93548387,0,4294.19354839,0,4137.09677419,0,4203.87096774,0,4109.03225806,0,4138.70967742,0,0,0,?
2018-01-26 08:12:40.795000,4128.70967742,0,4159.67741935,0,4167.41935484,0,4142.58064516,0,4152.90322581,0,4007.41935484,0,4081.61290323,0,4179.03225806,0,4185.48387097,0,4272.25806452,0,4132.90322581,0,4181.93548387,0,4144.51612903,0,4146.4516129,0,0,0,?
2018-01-26 08:12:40.800000,4125.48387097,0,4152.25806452,0,4157.74193548,0,4117.09677419,0,4158.70967742,0,4022.25806452,0,4082.90322581,0,4132.58064516,0,4190.96774194,0,4272.90322581,0,4130.0,0,4184.19354839,0,4136.4516129,0,4103.87096774,0,0,0,?
2018-01-26 08:12:40.808000,4109.35483871,0,4151.61290323,0,4174.83870968,0,4127.09677419,0,4176.4516129,0,4032.58064516,0,4104.19354839,0,4158.70967742,0,4173.5483871,0,4294.19354839,0,4141.61290323,0,4162.58064516,0,4102.25806452,0,4100.64516129,0,0,0,?
2018-01-26 08:12:40.819000,4124.83870968,0,4154.83870968,0,4178.06451613,0,4133.22580645,0,4134.51612903,0,4004.83870968,0,4095.48387097,0,4141.93548387,0,4207.09677419,0,4337.41935484,0,4134.19354839,0,4193.5483871,0,4098.06451613,0,4099.67741935,0,0,0,?
2018-01-26 08:12:40.825000,4106.4516129,0,4149.03225806,0,4192.25806452,0,4133.22580645,0,4114.51612903,0,4039.03225806,0,4068.38709677,0,4158.38709677,0,4190.0,0,4301.29032258,0,4174.51612903,0,4167.09677419,0,4131.61290323,0,4134.83870968,0,0,0,?
2018-01-26 08:12:40.832000,4119.03225806,0,4162.58064516,0,4201.93548387,0,4132.90322581,0,4151.29032258,0,4017.74193548,0,4083.22580645,0,4156.4516129,0,4182.90322581,0,4299.67741935,0,4133.5483871,0,4183.22580645,0,4134.19354839,0,4099.35483871,0,0,0,?
2018-01-26 08:12:40.840000,4118.38709677,0,4169.67741935,0,4198.38709677,0,4140.0,0,4178.06451613,0,4057.09677419,0,4074.83870968,0,4150.64516129,0,4199.03225806,0,4313.22580645,0,4133.22580645,0,4202.25806452,0,4101.93548387,0,4106.12903226,0,0,0,?
2018-01-26 08:12:40.850000,4098.38709677,0,4155.48387097,0,4196.12903226,0,4143.22580645,0,4165.16129032,0,4065.80645161,0,4075.16129032,0,4171.93548387,0,4195.48387097,0,4282.58064516,0,4166.77419355,0,4191.61290323,0,4097.09677419,0,4140.64516129,0,0,0,?
2018-01-26 08:12:40.856000,4120.0,0,4161.29032258,0,4180.96774194,0,4147.41935484,0,4150.96774194,0,4046.12903226,0,4098.38709677,0,4149.35483871,0,4210.64516129,0,4288.38709677,0,4167.74193548,0,4173.5483871,0,4126.12903226,0,4099.35483871,0,0,0,?
2018-01-26 08:12:40.864000,4105.80645161,0,4172.58064516,0,4190.32258065,0,4165.16129032,0,4168.38709677,0,4040.64516129,0,4112.25806452,0,4160.64516129,0,4220.0,0,4277.74193548,0,4177.74193548,0,4182.90322581,0,4138.06451613,0,4103.5483871,0,0,0,?
2018-01-26 08:12:40.872000,4114.83870968,0,4132.25806452,0,4216.77419355,0,4159.67741935,0,4172.58064516,0,4054.19354839,0,4085.16129032,0,4185.16129032,0,4231.29032258,0,4302.58064516,0,4165.48387097,0,4190.32258065,0,4098.70967742,0,4102.90322581,0,0,0,?
2018-01-26 08:12:40.882000,4122.58064516,0,4140.32258065,0,4197.09677419,0,4165.80645161,0,4171.29032258,0,4052.90322581,0,4088.06451613,0,4188.38709677,0,4229.03225806,0,4305.80645161,0,4164.51612903,0,4181.61290323,0,4135.80645161,0,4145.80645161,0,0,0,?
2018-01-26 08:12:40.889000,4102.25806452,0,4134.51612903,0,4173.5483871,0,4134.51612903,0,4174.51612903,0,4039.67741935,0,4082.25806452,0,4174.51612903,0,4209.03225806,0,4283.5483871,0,4176.4516129,0,4175.80645161,0,4122.90322581,0,4097.74193548,0,0,0,?
2018-01-26 08:12:40.895000,4125.16129032,0,4177.09677419,0,4145.80645161,0,4133.5483871,0,4170.32258065,0,4045.48387097,0,4067.09677419,0,4152.58064516,0,4194.51612903,0,4289.03225806,0,4167.74193548,0,4172.90322581,0,4121.29032258,0,4113.87096774,0,0,0,?
2018-01-26 08:12:40.904000,4111.29032258,0,4167.09677419,0,4166.77419355,0,4141.93548387,0,4172.90322581,0,4053.87096774,0,4111.93548387,0,4162.58064516,0,4225.80645161,0,4265.80645161,0,4175.48387097,0,4182.58064516,0,4138.06451613,0,4146.12903226,0,0,0,?
2018-01-26 08:12:40.914000,4107.09677419,0,4179.03225806,0,4196.12903226,0,4134.83870968,0,4157.41935484,0,4042.58064516,0,4111.29032258,0,4174.19354839,0,4193.87096774,0,4240.96774194,0,4171.29032258,0,4182.58064516,0,4141.61290323,0,4143.87096774,0,0,0,?
2018-01-26 08:12:40.921000,4116.77419355,0,4148.06451613,0,4219.35483871,0,4134.19354839,0,4147.09677419,0,4056.4516129,0,4073.22580645,0,4172.58064516,0,4230.64516129,0,4292.90322581,0,4107.74193548,0,4172.25806452,0,4126.12903226,0,4106.4516129,0,0,0,?
2018-01-26 08:12:40.927000,4098.06451613,0,4137.74193548,0,4197.41935484,0,4167.74193548,0,4178.06451613,0,4044.51612903,0,4099.67741935,0,4188.70967742,0,4218.38709677,0,4307.09677419,0,4113.87096774,0,4178.06451613,0,4121.93548387,0,4142.58064516,0,0,0,?
2018-01-26 08:12:40.935000,4115.80645161,0,4130.96774194,0,4212.90322581,0,4166.12903226,0,4150.0,0,4055.48387097,0,4100.0,0,4195.48387097,0,4212.58064516,0,4286.77419355,0,4120.32258065,0,4180.64516129,0,4113.5483871,0,4120.64516129,0,0,0,?
2018-01-26 08:12:40.946000,4105.48387097,0,4135.16129032,0,4194.51612903,0,4146.77419355,0,4135.48387097,0,4050.96774194,0,4090.0,0,4184.83870968,0,4230.0,0,4296.4516129,0,4119.67741935,0,4177.09677419,0,4100.64516129,0,4093.87096774,0,0,0,?
2018-01-26 08:12:40.953000,4102.58064516,0,4140.0,0,4181.61290323,0,4145.48387097,0,4138.06451613,0,4081.61290323,0,4080.64516129,0,4169.35483871,0,4222.90322581,0,4273.22580645,0,4117.41935484,0,4156.77419355,0,4081.29032258,0,4098.38709677,0,0,0,?
2018-01-26 08:12:40.958000,4114.51612903,0,4136.77419355,0,4198.06451613,0,4150.64516129,0,4116.77419355,0,4066.4516129,0,4073.87096774,0,4162.25806452,0,4208.70967742,0,4266.77419355,0,4100.64516129,0,4143.5483871,0,4105.48387097,0,4108.38709677,0,0,0,?
2018-01-26 08:12:40.966000,4140.64516129,0,4134.83870968,0,4232.58064516,0,4157.74193548,0,4157.09677419,0,4052.25806452,0,4086.77419355,0,4173.22580645,0,4240.96774194,0,4300.0,0,4141.61290323,0,4161.93548387,0,4109.67741935,0,4093.22580645,0,0,0,?
2018-01-26 08:12:40.977000,4107.41935484,0,4148.06451613,0,4207.09677419,0,4156.12903226,0,4171.61290323,0,4073.22580645,0,4096.4516129,0,4167.74193548,0,4243.22580645,0,4303.87096774,0,4138.38709677,0,4164.19354839,0,4069.35483871,0,4104.51612903,0,0,0,?
2018-01-26 08:12:40.984000,4107.41935484,0,4136.12903226,0,4184.83870968,0,4165.16129032,0,4154.83870968,0,4047.09677419,0,4088.70967742,0,4172.25806452,0,4233.5483871,0,4279.03225806,0,4128.70967742,0,4155.48387097,0,4066.77419355,0,4104.51612903,0,0,0,?
2018-01-26 08:12:40.990000,4098.06451613,0,4167.09677419,0,4198.70967742,0,4169.67741935,0,4149.03225806,0,4040.64516129,0,4073.22580645,0,4183.5483871,0,4241.61290323,0,4297.41935484,0,4133.87096774,0,4158.38709677,0,4110.0,0,4100.64516129,0,0,0,?
2018-01-26 08:12:40.998000,4103.5483871,0,4167.74193548,0,4191.93548387,0,4160.0,0,4147.74193548,0,4065.48387097,0,4071.93548387,0,4162.58064516,0,4232.25806452,0,4297.09677419,0,4131.29032258,0,4156.77419355,0,4096.77419355,0,4108.38709677,0,0,0,?
2018-01-26 08:12:41.009000,4135.48387097,0,4167.41935484,0,4229.03225806,0,4164.51612903,0,4150.96774194,0,4063.22580645,0,4087.41935484,0,4150.96774194,0,4241.61290323,0,4320.64516129,0,4136.4516129,0,4152.58064516,0,4102.90322581,0,4102.90322581,0,0,0,?
2018-01-26 08:12:41.015000,4110.0,0,4132.25806452,0,4241.93548387,0,4168.70967742,0,4148.06451613,0,4052.58064516,0,4091.93548387,0,4160.64516129,0,4199.35483871,0,4310.96774194,0,4148.06451613,0,4159.35483871,0,4070.64516129,0,4122.90322581,0,0,0,?
2018-01-26 08:12:41.021000,4109.03225806,0,4148.06451613,0,4221.61290323,0,4186.12903226,0,4158.06451613,0,4075.16129032,0,4100.64516129,0,4170.64516129,0,4242.90322581,0,4335.16129032,0,4153.87096774,0,4179.03225806,0,4079.35483871,0,4126.4516129,0,0,0,?
2018-01-26 08:12:41.029000,4143.5483871,0,4134.19354839,0,4200.0,0,4185.48387097,0,4147.74193548,0,4070.32258065,0,4086.4516129,0,4160.96774194,0,4241.93548387,0,4301.61290323,0,4148.70967742,0,4176.12903226,0,4071.61290323,0,4100.96774194,0,0,0,?
2018-01-26 08:12:41.040000,4115.80645161,0,4168.70967742,0,4188.38709677,0,4179.03225806,0,4140.64516129,0,4052.58064516,0,4102.90322581,0,4152.90322581,0,4220.96774194,0,4296.4516129,0,4148.06451613,0,4161.29032258,0,4066.4516129,0,4082.25806452,0,0,0,?
2018-01-26 08:12:41.047000,4146.77419355,0,4174.83870968,0,4194.51612903,0,4161.29032258,0,4141.61290323,0,4088.06451613,0,4070.32258065,0,4161.29032258,0,4249.35483871,0,4271.29032258,0,4148.38709677,0,4169.35483871,0,4068.70967742,0,4100.0,0,0,0,?
2018-01-26 08:12:41.054000,4145.80645161,0,4133.5483871,0,4188.38709677,0,4197.74193548,0,4147.41935484,0,4101.29032258,0,4089.67741935,0,4144.51612903,0,4235.80645161,0,4300.96774194,0,4119.03225806,0,4156.4516129,0,4084.83870968,0,4077.41935484,0,0,0,?
2018-01-26 08:12:41.062000,4139.35483871,0,4161.93548387,0,4162.58064516,0,4159.67741935,0,4160.96774194,0,4081.29032258,0,4085.80645161,0,4151.61290323,0,4213.5483871,0,4300.32258065,0,4101.61290323,0,4134.19354839,0,4057.41935484,0,4069.35483871,0,0,0,?
2018-01-26 08:12:41.073000,4131.93548387,0,4150.32258065,0,4166.77419355,0,4162.58064516,0,4168.38709677,0,4100.96774194,0,4109.35483871,0,4190.0,0,4247.74193548,0,4272.58064516,0,4115.80645161,0,4146.77419355,0,4074.83870968,0,4086.4516129,0,0,0,?
2018-01-26 08:12:41.079000,4113.87096774,0,4178.38709677,0,4198.70967742,0,4182.25806452,0,4176.12903226,0,4070.64516129,0,4113.22580645,0,4188.70967742,0,4274.83870968,0,4272.90322581,0,4127.09677419,0,4158.06451613,0,4082.90322581,0,4106.4516129,0,0,0,?
2018-01-26 08:12:41.085000,4145.48387097,0,4139.67741935,0,4185.80645161,0,4200.96774194,0,4166.4516129,0,4102.90322581,0,4081.93548387,0,4175.80645161,0,4245.48387097,0,4293.87096774,0,4124.19354839,0,4155.48387097,0,4080.32258065,0,4090.32258065,0,0,0,?
2018-01-26 08:12:41.093000,4146.77419355,0,4132.90322581,0,4176.77419355,0,4189.67741935,0,4155.80645161,0,4087.09677419,0,4078.06451613,0,4178.06451613,0,4239.35483871,0,4285.16129032,0,4117.09677419,0,4150.0,0,4076.4516129,0,4098.06451613,0,0,0,?
2018-01-26 08:12:41.104000,4104.19354839,0,4135.80645161,0,4242.90322581,0,4180.64516129,0,4148.38709677,0,4082.25806452,0,4110.96774194,0,4180.64516129,0,4247.74193548,0,4298.38709677,0,4123.87096774,0,4147.74193548,0,4074.51612903,0,4112.25806452,0,0,0,?
2018-01-26 08:12:41.110000,4140.0,0,4136.77419355,0,4240.32258065,0,4178.70967742,0,4123.22580645,0,4068.70967742,0,4114.83870968,0,4160.96774194,0,4213.87096774,0,4255.16129032,0,4130.32258065,0,4140.32258065,0,4078.38709677,0,4106.77419355,0,0,0,?
2018-01-26 08:12:41.116000,4111.29032258,0,4132.25806452,0,4211.29032258,0,4161.29032258,0,4143.87096774,0,4052.90322581,0,4078.70967742,0,4176.12903226,0,4222.58064516,0,4235.80645161,0,4119.03225806,0,4178.38709677,0,4075.16129032,0,4113.22580645,0,0,0,?
2018-01-26 08:12:41.124000,4100.96774194,0,4172.90322581,0,4162.25806452,0,4172.90322581,0,4116.4516129,0,4056.12903226,0,4083.5483871,0,4139.03225806,0,4210.96774194,0,4277.74193548,0,4121.29032258,0,4142.90322581,0,4079.67741935,0,4113.87096774,0,0,0,?
2018-01-26 08:12:41.135000,4104.83870968,0,4178.38709677,0,4177.09677419,0,4204.83870968,0,4158.06451613,0,4088.38709677,0,4121.29032258,0,4178.38709677,0,4252.90322581,0,4299.35483871,0,4134.51612903,0,4157.41935484,0,4089.03225806,0,4072.58064516,0,0,0,?
2018-01-26 08:12:41.141000,4106.12903226,0,4138.06451613,0,4209.03225806,0,4210.32258065,0,4163.22580645,0,4074.19354839,0,4120.0,0,4184.83870968,0,4230.32258065,0,4268.38709677,0,4130.0,0,4149.67741935,0,4090.64516129,0,4074.19354839,0,0,0,?
2018-01-26 08:12:41.147000,4134.19354839,0,4135.48387097,0,4200.0,0,4193.87096774,0,4138.38709677,0,4064.83870968,0,4078.06451613,0,4173.87096774,0,4217.09677419,0,4269.35483871,0,4120.64516129,0,4145.48387097,0,4089.03225806,0,4066.77419355,0,0,0,?
2018-01-26 08:12:41.155000,4108.70967742,0,4134.19354839,0,4166.77419355,0,4187.74193548,0,4124.83870968,0,4090.64516129,0,4102.58064516,0,4169.35483871,0,4230.0,0,4282.90322581,0,4118.38709677,0,4141.93548387,0,4083.5483871,0,4082.58064516,0,0,0,?
2018-01-26 08:12:41.166000,4145.16129032,0,4177.41935484,0,4157.41935484,0,4194.19354839,0,4138.70967742,0,4108.06451613,0,4070.32258065,0,4175.48387097,0,4223.5483871,0,4270.64516129,0,4117.09677419,0,4178.38709677,0,4076.12903226,0,4073.22580645,0,0,0,?
2018-01-26 08:12:41.172000,4133.5483871,0,4174.51612903,0,4151.29032258,0,4180.0,0,4137.09677419,0,4078.06451613,0,4113.87096774,0,4160.0,0,4232.58064516,0,4235.80645161,0,4110.32258065,0,4157.74193548,0,4059.67741935,0,4068.38709677,0,0,0,?
2018-01-26 08:12:41.179000,4143.87096774,0,4168.06451613,0,4158.38709677,0,4167.74193548,0,4129.03225806,0,4069.35483871,0,4098.06451613,0,4140.32258065,0,4222.25806452,0,4271.93548387,0,4100.32258065,0,4160.64516129,0,4055.16129032,0,4070.0,0,0,0,?
2018-01-26 08:12:41.187000,4124.83870968,0,4148.70967742,0,4164.19354839,0,4182.58064516,0,4141.93548387,0,4072.25806452,0,4067.74193548,0,4161.93548387,0,4206.12903226,0,4244.19354839,0,4100.32258065,0,4175.48387097,0,4055.80645161,0,4100.32258065,0,0,0,?
2018-01-26 08:12:41.198000,4139.67741935,0,4154.83870968,0,4150.0,0,4188.70967742,0,4152.25806452,0,4094.51612903,0,4074.51612903,0,4186.4516129,0,4198.70967742,0,4247.41935484,0,4100.96774194,0,4162.58064516,0,4035.48387097,0,4066.12903226,0,0,0,?
2018-01-26 08:12:41.205000,4130.64516129,0,4163.22580645,0,4164.83870968,0,4199.35483871,0,4155.80645161,0,4112.58064516,0,4074.83870968,0,4195.80645161,0,4242.25806452,0,4232.90322581,0,4107.41935484,0,4154.51612903,0,4039.03225806,0,4075.48387097,0,0,0,?
2018-01-26 08:12:41.210000,4131.61290323,0,4159.35483871,0,4156.4516129,0,4200.64516129,0,4137.41935484,0,4106.4516129,0,4082.90322581,0,4186.77419355,0,4211.61290323,0,4237.74193548,0,4104.51612903,0,4159.67741935,0,4056.77419355,0,4066.77419355,0,0,0,?
2018-01-26 08:12:41.218000,4104.51612903,0,4166.4516129,0,4161.29032258,0,4155.48387097,0,4142.58064516,0,4104.83870968,0,4091.61290323,0,4181.61290323,0,4234.19354839,0,4210.64516129,0,4139.35483871,0,4162.25806452,0,4047.09677419,0,4071.29032258,0,0,0,?
2018-01-26 08:12:41.229000,4130.64516129,0,4162.90322581,0,4177.74193548,0,4149.67741935,0,4169.67741935,0,4119.67741935,0,4088.70967742,0,4190.0,0,4239.35483871,0,4250.96774194,0,4141.29032258,0,4161.61290323,0,4035.48387097,0,4078.06451613,0,0,0,?
2018-01-26 08:12:41.236000,4136.4516129,0,4157.41935484,0,4161.93548387,0,4133.87096774,0,4142.90322581,0,4112.25806452,0,4065.16129032,0,4182.25806452,0,4200.96774194,0,4235.48387097,0,4145.48387097,0,4155.16129032,0,4077.74193548,0,4091.61290323,0,0,0,?
2018-01-26 08:12:41.242000,4132.90322581,0,4160.96774194,0,4168.70967742,0,4136.77419355,0,4144.19354839,0,4118.38709677,0,4081.61290323,0,4200.0,0,4211.61290323,0,4268.06451613,0,4102.25806452,0,4175.80645161,0,4082.25806452,0,4076.77419355,0,0,0,?
2018-01-26 08:12:41.250000,4130.0,0,4158.70967742,0,4157.09677419,0,4172.25806452,0,4170.64516129,0,4136.12903226,0,4111.29032258,0,4165.80645161,0,4241.29032258,0,4269.35483871,0,4111.29032258,0,4142.25806452,0,4038.06451613,0,4072.25806452,0,0,0,?
2018-01-26 08:12:41.261000,4144.83870968,0,4150.64516129,0,4145.80645161,0,4155.48387097,0,4146.12903226,0,4121.29032258,0,4100.64516129,0,4194.51612903,0,4208.70967742,0,4256.77419355,0,4103.22580645,0,4170.32258065,0,4034.83870968,0,4094.83870968,0,0,0,?
2018-01-26 08:12:41.267000,4118.38709677,0,4145.48387097,0,4155.16129032,0,4156.4516129,0,4129.35483871,0,4113.22580645,0,4080.64516129,0,4179.67741935,0,4217.41935484,0,4240.64516129,0,4142.25806452,0,4150.32258065,0,4036.12903226,0,4088.06451613,0,0,0,?
2018-01-26 08:12:41.273000,4139.35483871,0,4162.90322581,0,4152.58064516,0,4155.80645161,0,4139.35483871,0,4128.06451613,0,4070.96774194,0,4175.16129032,0,4216.12903226,0,4221.61290323,0,4141.29032258,0,4152.90322581,0,4038.38709677,0,4090.64516129,0,0,0,?
2018-01-26 08:12:41.281000,4142.90322581,0,4168.70967742,0,4175.48387097,0,4164.83870968,0,4150.32258065,0,4140.32258065,0,4077.74193548,0,4190.0,0,4213.22580645,0,4213.87096774,0,4097.09677419,0,4168.06451613,0,4048.38709677,0,4100.32258065,0,0,0,?
2018-01-26 08:12:41.292000,4123.5483871,0,4158.06451613,0,4127.41935484,0,4181.93548387,0,4148.38709677,0,4145.16129032,0,4085.80645161,0,4203.87096774,0,4223.5483871,0,4239.67741935,0,4144.83870968,0,4160.64516129,0,4056.4516129,0,4096.4516129,0,0,0,?
2018-01-26 08:12:41.300000,4145.48387097,0,4152.58064516,0,4139.35483871,0,4166.77419355,0,4131.29032258,0,4100.32258065,0,4078.70967742,0,4191.61290323,0,4239.67741935,0,4204.83870968,0,4138.70967742,0,4141.29032258,0,4050.32258065,0,4089.67741935,0,0,0,?
2018-01-26 08:12:41.306000,4124.19354839,0,4135.16129032,0,4153.5483871,0,4158.06451613,0,4123.22580645,0,4101.93548387,0,4080.0,0,4194.83870968,0,4207.74193548,0,4193.87096774,0,4139.67741935,0,4148.06451613,0,4040.32258065,0,4075.80645161,0,0,0,?
2018-01-26 08:12:41.314000,4122.25806452,0,4139.03225806,0,4156.12903226,0,4176.12903226,0,4134.19354839,0,4098.70967742,0,4082.25806452,0,4207.09677419,0,4239.03225806,0,4212.58064516,0,4132.90322581,0,4156.12903226,0,4037.41935484,0,4087.74193548,0,0,0,?
2018-01-26 08:12:41.325000,4130.0,0,4163.5483871,0,4157.74193548,0,4196.4516129,0,4153.5483871,0,4106.12903226,0,4079.03225806,0,4167.09677419,0,4235.48387097,0,4218.70967742,0,4123.87096774,0,4151.93548387,0,4054.19354839,0,4096.77419355,0,0,0,?
2018-01-26 08:12:41.331000,4124.83870968,0,4169.03225806,0,4180.64516129,0,4183.87096774,0,4148.38709677,0,4111.93548387,0,4075.80645161,0,4164.19354839,0,4213.87096774,0,4200.96774194,0,4120.96774194,0,4143.22580645,0,4060.32258065,0,4094.51612903,0,0,0,?
2018-01-26 08:12:41.337000,4136.12903226,0,4147.09677419,0,4170.64516129,0,4165.48387097,0,4128.70967742,0,4109.03225806,0,4108.38709677,0,4190.64516129,0,4222.58064516,0,4220.96774194,0,4114.19354839,0,4123.22580645,0,4079.35483871,0,4101.61290323,0,0,0,?
2018-01-26 08:12:41.345000,4106.4516129,0,4125.48387097,0,4151.61290323,0,4180.32258065,0,4134.19354839,0,4111.93548387,0,4097.74193548,0,4186.77419355,0,4219.35483871,0,4241.29032258,0,4112.90322581,0,4115.48387097,0,4072.25806452,0,4096.12903226,0,0,0,?
2018-01-26 08:12:41.356000,4124.83870968,0,4139.03225806,0,4150.96774194,0,4173.87096774,0,4128.70967742,0,4113.22580645,0,4104.19354839,0,4186.4516129,0,4233.87096774,0,4221.29032258,0,4114.83870968,0,4120.32258065,0,4040.0,0,4106.77419355,0,0,0,?
2018-01-26 08:12:41.363000,4145.80645161,0,4146.77419355,0,4151.61290323,0,4163.87096774,0,4120.96774194,0,4119.03225806,0,4114.19354839,0,4182.90322581,0,4219.35483871,0,4207.74193548,0,4118.06451613,0,4125.80645161,0,4036.12903226,0,4103.22580645,0,0,0,?
2018-01-26 08:12:41.369000,4120.96774194,0,4136.12903226,0,4142.25806452,0,4174.51612903,0,4138.06451613,0,4130.0,0,4075.80645161,0,4196.12903226,0,4220.0,0,4210.32258065,0,4120.96774194,0,4127.41935484,0,4080.0,0,4092.25806452,0,0,0,?
2018-01-26 08:12:41.376000,4136.4516129,0,4144.83870968,0,4139.67741935,0,4164.19354839,0,4137.09677419,0,4125.16129032,0,4074.51612903,0,4199.67741935,0,4225.48387097,0,4258.38709677,0,4114.83870968,0,4119.35483871,0,4037.09677419,0,4107.74193548,0,0,0,?
2018-01-26 08:12:41.388000,4124.83870968,0,4143.5483871,0,4133.22580645,0,4163.5483871,0,4115.48387097,0,4119.35483871,0,4072.25806452,0,4187.41935484,0,4229.35483871,0,4233.5483871,0,4115.16129032,0,4121.93548387,0,4052.25806452,0,4101.93548387,0,0,0,?
2018-01-26 08:12:41.393000,4122.58064516,0,4128.06451613,0,4132.58064516,0,4166.77419355,0,4136.77419355,0,4123.87096774,0,4074.83870968,0,4180.96774194,0,4218.38709677,0,4250.64516129,0,4115.80645161,0,4123.22580645,0,4046.12903226,0,4104.19354839,0,0,0,?
2018-01-26 08:12:41.399000,4140.96774194,0,4137.09677419,0,4130.64516129,0,4178.70967742,0,4098.38709677,0,4134.19354839,0,4087.09677419,0,4202.58064516,0,4211.93548387,0,4264.19354839,0,4115.16129032,0,4126.4516129,0,4080.96774194,0,4116.12903226,0,0,0,?
2018-01-26 08:12:41.407000,4124.51612903,0,4155.80645161,0,4177.74193548,0,4204.19354839,0,4143.22580645,0,4147.09677419,0,4096.4516129,0,4172.90322581,0,4235.16129032,0,4263.22580645,0,4118.06451613,0,4136.77419355,0,4082.25806452,0,4108.06451613,0,0,0,?
2018-01-26 08:12:41.418000,4129.03225806,0,4160.0,0,4161.29032258,0,4200.32258065,0,4146.12903226,0,4152.58064516,0,4089.35483871,0,4208.06451613,0,4206.77419355,0,4240.64516129,0,4113.5483871,0,4127.09677419,0,4078.38709677,0,4106.12903226,0,0,0,?
2018-01-26 08:12:41.426000,4121.29032258,0,4144.83870968,0,4171.93548387,0,4204.51612903,0,4147.09677419,0,4167.09677419,0,4102.90322581,0,4204.51612903,0,4232.90322581,0,4258.70967742,0,4120.64516129,0,4130.64516129,0,4036.4516129,0,4099.03225806,0,0,0,?
2018-01-26 08:12:41.431000,4133.5483871,0,4144.51612903,0,4181.61290323,0,4166.12903226,0,4159.35483871,0,4134.51612903,0,4109.35483871,0,4168.06451613,0,4233.87096774,0,4244.19354839,0,4130.96774194,0,4144.19354839,0,4053.5483871,0,4112.25806452,0,0,0,?
2018-01-26 08:12:41.439000,4144.19354839,0,4164.83870968,0,4188.06451613,0,4200.64516129,0,4146.4516129,0,4173.87096774,0,4102.25806452,0,4166.4516129,0,4222.90322581,0,4301.61290323,0,4114.51612903,0,4134.51612903,0,4047.74193548,0,4127.09677419,0,0,0,?
2018-01-26 08:12:41.449000,4118.06451613,0,4163.22580645,0,4166.77419355,0,4196.12903226,0,4131.29032258,0,4157.74193548,0,4112.90322581,0,4209.03225806,0,4227.09677419,0,4286.77419355,0,4099.67741935,0,4127.74193548,0,4081.61290323,0,4116.4516129,0,0,0,?
2018-01-26 08:12:41.455000,4144.19354839,0,4161.29032258,0,4186.77419355,0,4167.74193548,0,4122.25806452,0,4163.22580645,0,4113.22580645,0,4199.67741935,0,4222.25806452,0,4269.03225806,0,4113.87096774,0,4133.22580645,0,4076.77419355,0,4124.19354839,0,0,0,?
2018-01-26 08:12:41.462000,4138.70967742,0,4158.38709677,0,4171.61290323,0,4185.16129032,0,4114.19354839,0,4178.70967742,0,4109.35483871,0,4205.16129032,0,4227.09677419,0,4302.25806452,0,4136.12903226,0,4147.41935484,0,4077.41935484,0,4120.96774194,0,0,0,?
2018-01-26 08:12:41.470000,4121.93548387,0,4148.06451613,0,4175.80645161,0,4164.51612903,0,4109.03225806,0,4135.48387097,0,4109.35483871,0,4204.51612903,0,4221.93548387,0,4259.35483871,0,4124.51612903,0,4140.0,0,4058.70967742,0,4115.48387097,0,0,0,?
2018-01-26 08:12:41.481000,4143.22580645,0,4145.48387097,0,4190.0,0,4210.96774194,0,4126.12903226,0,4141.29032258,0,4108.06451613,0,4197.09677419,0,4204.83870968,0,4290.96774194,0,4095.80645161,0,4117.09677419,0,4043.87096774,0,4120.64516129,0,0,0,?
2018-01-26 08:12:41.488000,4130.96774194,0,4152.58064516,0,4203.5483871,0,4203.5483871,0,4155.16129032,0,4160.32258065,0,4129.03225806,0,4210.32258065,0,4198.06451613,0,4274.19354839,0,4099.35483871,0,4127.41935484,0,4061.93548387,0,4111.29032258,0,0,0,?
2018-01-26 08:12:41.494000,4139.67741935,0,4169.35483871,0,4205.80645161,0,4207.41935484,0,4152.90322581,0,4169.03225806,0,4136.12903226,0,4209.03225806,0,4194.83870968,0,4285.80645161,0,4111.93548387,0,4139.67741935,0,4073.22580645,0,4125.16129032,0,0,0,?
2018-01-26 08:12:41.503000,4132.58064516,0,4150.96774194,0,4183.5483871,0,4189.67741935,0,4153.22580645,0,4166.4516129,0,4124.19354839,0,4202.25806452,0,4220.32258065,0,4259.67741935,0,4116.77419355,0,4134.83870968,0,4071.61290323,0,4131.61290323,0,0,0,?
2018-01-26 08:12:41.514000,4127.09677419,0,4139.35483871,0,4157.41935484,0,4190.0,0,4159.67741935,0,4165.16129032,0,4122.25806452,0,4197.09677419,0,4236.77419355,0,4259.35483871,0,4117.09677419,0,4129.67741935,0,4073.22580645,0,4121.61290323,0,0,0,?
2018-01-26 08:12:41.520000,4097.74193548,0,4164.83870968,0,4198.70967742,0,4192.25806452,0,4151.61290323,0,4162.58064516,0,4125.16129032,0,4189.67741935,0,4212.25806452,0,4300.64516129,0,4107.09677419,0,4125.80645161,0,4073.5483871,0,4127.74193548,0,0,0,?
2018-01-26 08:12:41.525000,4126.4516129,0,4160.64516129,0,4208.38709677,0,4219.03225806,0,4165.80645161,0,4172.25806452,0,4133.5483871,0,4205.80645161,0,4211.29032258,0,4265.16129032,0,4111.61290323,0,4131.61290323,0,4077.74193548,0,4129.03225806,0,0,0,?
2018-01-26 08:12:41.533000,4135.16129032,0,4149.35483871,0,4193.5483871,0,4226.77419355,0,4172.25806452,0,4179.67741935,0,4135.48387097,0,4208.70967742,0,4213.5483871,0,4299.67741935,0,4117.74193548,0,4131.61290323,0,4068.06451613,0,4129.35483871,0,0,0,?
2018-01-26 08:12:41.544000,4136.12903226,0,4160.0,0,4198.06451613,0,4210.0,0,4156.77419355,0,4183.87096774,0,4134.83870968,0,4194.83870968,0,4241.93548387,0,4247.74193548,0,4104.83870968,0,4114.83870968,0,4058.06451613,0,4116.77419355,0,0,0,?
2018-01-26 08:12:41.551000,4127.09677419,0,4159.03225806,0,4218.38709677,0,4208.38709677,0,4138.06451613,0,4185.16129032,0,4138.38709677,0,4190.64516129,0,4221.29032258,0,4227.74193548,0,4097.74193548,0,4097.09677419,0,4060.96774194,0,4117.41935484,0,0,0,?
2018-01-26 08:12:41.557000,4100.0,0,4156.12903226,0,4178.70967742,0,4217.74193548,0,4141.93548387,0,4185.80645161,0,4142.58064516,0,4190.64516129,0,4225.80645161,0,4233.5483871,0,4106.77419355,0,4100.0,0,4063.5483871,0,4136.77419355,0,0,0,?
2018-01-26 08:12:41.565000,4130.96774194,0,4163.5483871,0,4189.35483871,0,4223.87096774,0,4130.32258065,0,4207.41935484,0,4104.83870968,0,4204.83870968,0,4208.70967742,0,4224.19354839,0,4110.64516129,0,4113.22580645,0,4076.12903226,0,4124.83870968,0,0,0,?
2018-01-26 08:12:41.576000,4135.80645161,0,4160.0,0,4213.87096774,0,4208.38709677,0,4168.06451613,0,4169.67741935,0,4100.64516129,0,4209.67741935,0,4232.58064516,0,4243.5483871,0,4093.22580645,0,4102.25806452,0,4078.06451613,0,4122.25806452,0,0,0,?
2018-01-26 08:12:41.583000,4138.70967742,0,4140.0,0,4182.25806452,0,4211.29032258,0,4138.70967742,0,4211.29032258,0,4102.25806452,0,4210.0,0,4199.03225806,0,4234.19354839,0,4083.22580645,0,4141.93548387,0,4069.03225806,0,4123.87096774,0,0,0,?
2018-01-26 08:12:41.589000,4120.64516129,0,4135.48387097,0,4161.29032258,0,4223.87096774,0,4156.77419355,0,4200.96774194,0,4117.41935484,0,4163.5483871,0,4194.51612903,0,4200.0,0,4083.5483871,0,4099.03225806,0,4057.41935484,0,4121.29032258,0,0,0,?
2018-01-26 08:12:41.597000,4146.12903226,0,4143.5483871,0,4192.90322581,0,4201.61290323,0,4160.64516129,0,4210.0,0,4117.41935484,0,4209.35483871,0,4222.58064516,0,4220.32258065,0,4088.38709677,0,4105.48387097,0,4043.5483871,0,4138.70967742,0,0,0,?
2018-01-26 08:12:41.609000,4130.96774194,0,4144.19354839,0,4243.22580645,0,4198.06451613,0,4151.61290323,0,4180.96774194,0,4122.90322581,0,4172.58064516,0,4214.19354839,0,4205.48387097,0,4105.48387097,0,4116.4516129,0,4052.58064516,0,4133.22580645,0,0,0,?
2018-01-26 08:12:41.614000,4127.41935484,0,4150.96774194,0,4184.83870968,0,4213.5483871,0,4130.96774194,0,4167.41935484,0,4116.12903226,0,4163.22580645,0,4240.0,0,4229.03225806,0,4103.22580645,0,4108.38709677,0,4053.87096774,0,4135.80645161,0,0,0,?
2018-01-26 08:12:41.620000,4141.93548387,0,4142.25806452,0,4155.48387097,0,4216.12903226,0,4121.61290323,0,4163.87096774,0,4144.19354839,0,4181.93548387,0,4217.41935484,0,4192.90322581,0,4086.77419355,0,4141.61290323,0,4037.41935484,0,4140.0,0,0,0,?
2018-01-26 08:12:41.628000,4129.35483871,0,4126.77419355,0,4191.61290323,0,4219.67741935,0,4149.67741935,0,4198.70967742,0,4101.93548387,0,4194.83870968,0,4220.0,0,4238.70967742,0,4097.41935484,0,4146.12903226,0,4042.90322581,0,4121.93548387,0,0,0,?
2018-01-26 08:12:41.639000,4143.22580645,0,4142.58064516,0,4208.38709677,0,4227.41935484,0,4155.48387097,0,4194.83870968,0,4118.70967742,0,4171.61290323,0,4229.67741935,0,4202.58064516,0,4115.80645161,0,4101.93548387,0,4058.38709677,0,4122.90322581,0,0,0,?
2018-01-26 08:12:41.646000,4128.70967742,0,4142.58064516,0,4176.4516129,0,4234.19354839,0,4140.0,0,4167.41935484,0,4113.87096774,0,4174.51612903,0,4235.80645161,0,4190.64516129,0,4110.96774194,0,4100.64516129,0,4067.74193548,0,4127.41935484,0,0,0,?
2018-01-26 08:12:41.652000,4135.48387097,0,4129.67741935,0,4181.61290323,0,4211.93548387,0,4129.67741935,0,4186.4516129,0,4102.90322581,0,4201.29032258,0,4214.19354839,0,4162.25806452,0,4086.77419355,0,4140.32258065,0,4065.16129032,0,4141.29032258,0,0,0,?
2018-01-26 08:12:41.660000,4103.5483871,0,4134.51612903,0,4197.74193548,0,4208.38709677,0,4154.51612903,0,4225.16129032,0,4119.03225806,0,4194.51612903,0,4223.22580645,0,4215.80645161,0,4090.0,0,4144.19354839,0,4070.0,0,4145.48387097,0,0,0,?
2018-01-26 08:12:41.670000,4128.70967742,0,4116.12903226,0,4235.16129032,0,4198.70967742,0,4144.19354839,0,4226.12903226,0,4139.03225806,0,4170.0,0,4225.48387097,0,4208.06451613,0,4105.48387097,0,4108.38709677,0,4078.06451613,0,4132.58064516,0,0,0,?
2018-01-26 08:12:41.676000,4144.83870968,0,4138.06451613,0,4203.5483871,0,4199.35483871,0,4148.70967742,0,4231.29032258,0,4132.58064516,0,4177.41935484,0,4205.16129032,0,4225.80645161,0,4090.64516129,0,4097.74193548,0,4061.61290323,0,4142.58064516,0,0,0,?
2018-01-26 08:12:41.683000,4143.22580645,0,4139.03225806,0,4192.25806452,0,4228.70967742,0,4138.06451613,0,4213.5483871,0,4138.38709677,0,4180.64516129,0,4228.70967742,0,4184.83870968,0,4085.16129032,0,4098.70967742,0,4059.35483871,0,4136.12903226,0,0,0,?
2018-01-26 08:12:41.691000,4134.51612903,0,4108.70967742,0,4185.16129032,0,4214.83870968,0,4134.51612903,0,4241.93548387,0,4139.67741935,0,4177.74193548,0,4203.22580645,0,4174.19354839,0,4096.77419355,0,4102.58064516,0,4069.67741935,0,4134.51612903,0,0,0,?
2018-01-26 08:12:41.703000,4144.51612903,0,4101.29032258,0,4166.77419355,0,4205.48387097,0,4135.80645161,0,4196.77419355,0,4121.93548387,0,4205.48387097,0,4200.64516129,0,4177.74193548,0,4093.5483871,0,4139.35483871,0,4060.0,0,4146.4516129,0,0,0,?
2018-01-26 08:12:41.709000,4129.35483871,0,4143.87096774,0,4130.64516129,0,4231.29032258,0,4117.09677419,0,4216.4516129,0,4123.5483871,0,4199.67741935,0,4232.90322581,0,4201.29032258,0,4087.41935484,0,4142.58064516,0,4060.96774194,0,4142.90322581,0,0,0,?
2018-01-26 08:12:41.715000,4102.25806452,0,4127.09677419,0,4198.38709677,0,4203.5483871,0,4156.77419355,0,4243.22580645,0,4121.29032258,0,4161.61290323,0,4239.67741935,0,4212.90322581,0,4092.25806452,0,4097.74193548,0,4033.22580645,0,4100.32258065,0,0,0,?
2018-01-26 08:12:41.723000,4101.61290323,0,4144.19354839,0,4235.80645161,0,4239.67741935,0,4153.5483871,0,4241.61290323,0,4129.03225806,0,4174.51612903,0,4196.77419355,0,4198.06451613,0,4098.06451613,0,4100.0,0,4050.64516129,0,4097.41935484,0,0,0,?
2018-01-26 08:12:41.733000,4142.58064516,0,4129.03225806,0,4214.83870968,0,4212.90322581,0,4140.0,0,4200.96774194,0,4161.93548387,0,4170.64516129,0,4227.41935484,0,4166.77419355,0,4091.93548387,0,4105.80645161,0,4043.22580645,0,4098.06451613,0,0,0,?
2018-01-26 08:12:41.739000,4106.12903226,0,4123.22580645,0,4167.09677419,0,4237.74193548,0,4148.70967742,0,4211.29032258,0,4171.61290323,0,4165.16129032,0,4228.06451613,0,4161.61290323,0,4082.25806452,0,4107.74193548,0,4034.19354839,0,4107.09677419,0,0,0,?
2018-01-26 08:12:41.747000,4135.48387097,0,4124.19354839,0,4220.32258065,0,4233.22580645,0,4163.87096774,0,4207.74193548,0,4169.35483871,0,4181.29032258,0,4216.12903226,0,4190.64516129,0,4085.80645161,0,4110.32258065,0,4043.87096774,0,4097.74193548,0,0,0,?
2018-01-26 08:12:41.754000,4108.70967742,0,4137.41935484,0,4202.90322581,0,4214.19354839,0,4143.5483871,0,4209.67741935,0,4171.93548387,0,4172.90322581,0,4205.16129032,0,4171.61290323,0,4086.4516129,0,4100.96774194,0,4040.64516129,0,4101.61290323,0,0,0,?
2018-01-26 08:12:41.765000,4113.5483871,0,4142.25806452,0,4211.29032258,0,4194.51612903,0,4122.58064516,0,4213.87096774,0,4178.70967742,0,4207.74193548,0,4230.96774194,0,4184.19354839,0,4080.64516129,0,4145.16129032,0,4036.77419355,0,4145.16129032,0,0,0,?
2018-01-26 08:12:41.773000,4137.09677419,0,4123.22580645,0,4191.93548387,0,4243.22580645,0,4119.67741935,0,4199.03225806,0,4130.96774194,0,4168.06451613,0,4232.58064516,0,4154.51612903,0,4082.90322581,0,4098.70967742,0,4047.41935484,0,4127.41935484,0,0,0,?
2018-01-26 08:12:41.778000,4105.16129032,0,4118.06451613,0,4225.16129032,0,4232.90322581,0,4125.16129032,0,4203.5483871,0,4178.70967742,0,4170.64516129,0,4220.0,0,4143.87096774,0,4072.25806452,0,4096.77419355,0,4040.0,0,4121.29032258,0,0,0,?
2018-01-26 08:12:41.786000,4098.70967742,0,4126.77419355,0,4207.41935484,0,4201.29032258,0,4151.61290323,0,4251.93548387,0,4132.90322581,0,4171.29032258,0,4218.70967742,0,4168.06451613,0,4070.0,0,4143.5483871,0,4036.4516129,0,4116.12903226,0,0,0,?
2018-01-26 08:12:41.797000,4105.16129032,0,4138.38709677,0,4199.03225806,0,4205.80645161,0,4147.41935484,0,4260.64516129,0,4176.77419355,0,4166.77419355,0,4212.90322581,0,4146.77419355,0,4076.77419355,0,4128.38709677,0,4036.77419355,0,4129.03225806,0,0,0,?
2018-01-26 08:12:41.804000,4100.96774194,0,4135.80645161,0,4194.83870968,0,4200.64516129,0,4124.83870968,0,4232.25806452,0,4179.03225806,0,4209.03225806,0,4202.25806452,0,4178.06451613,0,4064.83870968,0,4120.64516129,0,4075.16129032,0,4135.16129032,0,0,0,?
2018-01-26 08:12:41.810000,4138.38709677,0,4121.61290323,0,4186.12903226,0,4207.09677419,0,4127.74193548,0,4237.09677419,0,4137.09677419,0,4200.96774194,0,4182.90322581,0,4136.12903226,0,4110.64516129,0,4130.96774194,0,4075.16129032,0,4138.38709677,0,0,0,?
2018-01-26 08:12:41.817000,4119.67741935,0,4122.90322581,0,4193.22580645,0,4196.77419355,0,4137.09677419,0,4250.32258065,0,4178.06451613,0,4196.12903226,0,4206.77419355,0,4166.4516129,0,4071.29032258,0,4128.06451613,0,4037.74193548,0,4200.0,0,0,0,?
2018-01-26 08:12:41.828000,4102.90322581,0,4115.16129032,0,4166.77419355,0,4197.74193548,0,4143.87096774,0,4254.83870968,0,4132.25806452,0,4165.48387097,0,4191.29032258,0,4171.93548387,0,4081.93548387,0,4129.67741935,0,4046.77419355,0,4180.64516129,0,0,0,?
2018-01-26 08:12:41.834000,4146.77419355,0,4114.51612903,0,4191.61290323,0,4208.06451613,0,4133.87096774,0,4263.5483871,0,4142.90322581,0,4166.12903226,0,4227.74193548,0,4166.77419355,0,4078.06451613,0,4138.38709677,0,4035.48387097,0,4165.16129032,0,0,0,?
2018-01-26 08:12:41.841000,4110.32258065,0,4124.51612903,0,4180.0,0,4217.09677419,0,4140.64516129,0,4269.35483871,0,4153.87096774,0,4165.16129032,0,4221.61290323,0,4197.09677419,0,4072.90322581,0,4146.4516129,0,4082.25806452,0,4171.29032258,0,0,0,?
2018-01-26 08:12:41.849000,4099.67741935,0,4116.4516129,0,4209.35483871,0,4221.61290323,0,4160.0,0,4264.51612903,0,4159.35483871,0,4181.93548387,0,4215.16129032,0,4178.70967742,0,4074.19354839,0,4098.38709677,0,4048.38709677,0,4176.77419355,0,0,0,?
2018-01-26 08:12:41.859000,4113.5483871,0,4112.25806452,0,4181.93548387,0,4193.5483871,0,4140.32258065,0,4254.19354839,0,4143.22580645,0,4166.12903226,0,4205.80645161,0,4173.87096774,0,4074.51612903,0,4128.70967742,0,4041.93548387,0,4183.5483871,0,0,0,?
2018-01-26 08:12:41.865000,4143.87096774,0,4119.67741935,0,4160.0,0,4234.51612903,0,4144.83870968,0,4265.80645161,0,4148.70967742,0,4211.29032258,0,4206.77419355,0,4178.38709677,0,4082.25806452,0,4127.09677419,0,4077.09677419,0,4174.83870968,0,0,0,?
2018-01-26 08:12:41.872000,4142.90322581,0,4129.35483871,0,4191.93548387,0,4199.03225806,0,4177.74193548,0,4236.12903226,0,4161.61290323,0,4175.16129032,0,4193.22580645,0,4191.93548387,0,4077.74193548,0,4141.93548387,0,4076.77419355,0,4171.61290323,0,0,0,?
2018-01-26 08:12:41.880000,4107.41935484,0,4119.67741935,0,4212.90322581,0,4195.80645161,0,4166.12903226,0,4244.51612903,0,4152.58064516,0,4171.93548387,0,4181.93548387,0,4196.12903226,0,4064.83870968,0,4140.96774194,0,4080.96774194,0,4178.06451613,0,0,0,?
2018-01-26 08:12:41.891000,4134.83870968,0,4146.12903226,0,4202.58064516,0,4229.67741935,0,4129.03225806,0,4234.83870968,0,4145.80645161,0,4208.70967742,0,4186.4516129,0,4179.03225806,0,4065.80645161,0,4123.87096774,0,4081.29032258,0,4173.5483871,0,0,0,?
2018-01-26 08:12:41.897000,4099.67741935,0,4100.96774194,0,4168.06451613,0,4230.32258065,0,4140.96774194,0,4235.80645161,0,4151.93548387,0,4194.83870968,0,4161.93548387,0,4156.77419355,0,4067.09677419,0,4109.35483871,0,4075.16129032,0,4174.51612903,0,0,0,?
2018-01-26 08:12:41.905000,4097.74193548,0,4118.38709677,0,4200.64516129,0,4220.32258065,0,4146.4516129,0,4263.87096774,0,4168.06451613,0,4201.29032258,0,4168.70967742,0,4175.80645161,0,4075.16129032,0,4117.09677419,0,4032.90322581,0,4168.06451613,0,0,0,?
2018-01-26 08:12:41.912000,4098.06451613,0,4122.25806452,0,4189.35483871,0,4233.87096774,0,4159.35483871,0,4274.19354839,0,4176.12903226,0,4161.61290323,0,4207.74193548,0,4164.19354839,0,4083.5483871,0,4126.12903226,0,4042.58064516,0,4171.61290323,0,0,0,?
2018-01-26 08:12:41.924000,4112.90322581,0,4111.61290323,0,4190.32258065,0,4208.06451613,0,4140.0,0,4261.29032258,0,4179.03225806,0,4206.4516129,0,4213.22580645,0,4171.61290323,0,4080.64516129,0,4132.25806452,0,4047.74193548,0,4179.67741935,0,0,0,?
2018-01-26 08:12:41.930000,4137.74193548,0,4100.32258065,0,4191.61290323,0,4206.12903226,0,4132.90322581,0,4251.93548387,0,4175.80645161,0,4193.87096774,0,4184.51612903,0,4159.03225806,0,4076.77419355,0,4129.67741935,0,4052.90322581,0,4168.38709677,0,0,0,?
2018-01-26 08:12:41.936000,4145.48387097,0,4118.06451613,0,4145.48387097,0,4212.58064516,0,4162.58064516,0,4245.48387097,0,4169.67741935,0,4189.03225806,0,4195.80645161,0,4176.12903226,0,4070.0,0,4110.0,0,4038.06451613,0,4168.38709677,0,0,0,?
2018-01-26 08:12:41.944000,4142.90322581,0,4124.19354839,0,4190.64516129,0,4205.80645161,0,4164.51612903,0,4246.77419355,0,4186.4516129,0,4203.87096774,0,4210.64516129,0,4180.96774194,0,4072.25806452,0,4112.25806452,0,4039.35483871,0,4164.19354839,0,0,0,?
2018-01-26 08:12:41.955000,4097.41935484,0,4114.19354839,0,4182.90322581,0,4240.32258065,0,4134.83870968,0,4257.09677419,0,4198.70967742,0,4204.83870968,0,4201.93548387,0,4203.22580645,0,4082.58064516,0,4128.38709677,0,4063.5483871,0,4173.22580645,0,0,0,?
2018-01-26 08:12:41.962000,4126.4516129,0,4114.51612903,0,4205.16129032,0,4237.09677419,0,4167.41935484,0,4255.80645161,0,4188.70967742,0,4191.93548387,0,4192.58064516,0,4178.06451613,0,4079.67741935,0,4125.48387097,0,4069.35483871,0,4185.80645161,0,0,0,?
2018-01-26 08:12:41.968000,4103.5483871,0,4111.61290323,0,4196.12903226,0,4201.93548387,0,4156.12903226,0,4260.32258065,0,4189.67741935,0,4194.83870968,0,4165.80645161,0,4193.22580645,0,4069.67741935,0,4118.70967742,0,4068.38709677,0,4165.80645161,0,0,0,?
2018-01-26 08:12:41.976000,4110.0,0,4118.70967742,0,4199.03225806,0,4202.58064516,0,4131.93548387,0,4274.83870968,0,4185.48387097,0,4190.64516129,0,4209.35483871,0,4202.25806452,0,4066.4516129,0,4119.03225806,0,4070.32258065,0,4173.5483871,0,0,0,?
2018-01-26 08:12:41.986000,4109.35483871,0,4113.87096774,0,4171.93548387,0,4208.06451613,0,4179.03225806,0,4279.67741935,0,4174.83870968,0,4186.12903226,0,4194.51612903,0,4208.38709677,0,4080.96774194,0,4113.5483871,0,4066.12903226,0,4190.64516129,0,0,0,?
2018-01-26 08:12:41.992000,4146.4516129,0,4104.19354839,0,4157.74193548,0,4209.03225806,0,4192.90322581,0,4287.09677419,0,4189.03225806,0,4190.96774194,0,4168.06451613,0,4182.25806452,0,4087.74193548,0,4102.25806452,0,4053.22580645,0,4199.67741935,0,0,0,?
2018-01-26 08:12:41.999000,4113.5483871,0,4118.06451613,0,4199.03225806,0,4240.32258065,0,4162.25806452,0,4288.38709677,0,4204.51612903,0,4193.87096774,0,4193.87096774,0,4201.93548387,0,4070.64516129,0,4111.61290323,0,4047.41935484,0,4210.32258065,0,0,0,?
2018-01-26 08:12:42.007000,4142.58064516,0,4109.67741935,0,4163.22580645,0,4230.64516129,0,4145.80645161,0,4279.03225806,0,4196.4516129,0,4203.5483871,0,4196.4516129,0,4198.06451613,0,4108.70967742,0,4129.03225806,0,4063.87096774,0,4191.61290323,0,0,0,?
2018-01-26 08:12:42.018000,4105.48387097,0,4142.90322581,0,4158.38709677,0,4226.12903226,0,4142.90322581,0,4283.87096774,0,4179.03225806,0,4201.61290323,0,4170.96774194,0,4205.48387097,0,4114.19354839,0,4113.22580645,0,4070.64516129,0,4186.4516129,0,0,0,?
2018-01-26 08:12:42.025000,4123.5483871,0,4108.06451613,0,4151.93548387,0,4213.5483871,0,4171.61290323,0,4263.22580645,0,4200.32258065,0,4161.61290323,0,4207.41935484,0,4216.4516129,0,4081.61290323,0,4120.0,0,4075.80645161,0,4196.77419355,0,0,0,?
2018-01-26 08:12:42.031000,4109.35483871,0,4134.51612903,0,4187.09677419,0,4254.83870968,0,4204.51612903,0,4266.77419355,0,4170.64516129,0,4178.06451613,0,4204.83870968,0,4208.38709677,0,4088.38709677,0,4103.22580645,0,4089.67741935,0,4198.38709677,0,0,0,?
2018-01-26 08:12:42.039000,4116.12903226,0,4128.38709677,0,4183.5483871,0,4217.09677419,0,4174.19354839,0,4282.58064516,0,4176.4516129,0,4200.96774194,0,4178.70967742,0,4217.74193548,0,4074.51612903,0,4134.51612903,0,4080.96774194,0,4193.87096774,0,0,0,?
2018-01-26 08:12:42.050000,4101.29032258,0,4105.80645161,0,4196.12903226,0,4238.38709677,0,4132.90322581,0,4273.22580645,0,4140.96774194,0,4181.61290323,0,4180.96774194,0,4254.19354839,0,4072.25806452,0,4110.0,0,4077.09677419,0,4188.38709677,0,0,0,?
2018-01-26 08:12:42.055000,4122.58064516,0,4121.61290323,0,4166.12903226,0,4204.83870968,0,4136.77419355,0,4286.4516129,0,4147.74193548,0,4190.64516129,0,4201.93548387,0,4248.06451613,0,4078.38709677,0,4127.74193548,0,4088.06451613,0,4213.5483871,0,0,0,?
2018-01-26 08:12:42.062000,4128.38709677,0,4131.61290323,0,4204.19354839,0,4202.25806452,0,4155.16129032,0,4299.67741935,0,4151.29032258,0,4194.83870968,0,4177.74193548,0,4300.64516129,0,4072.58064516,0,4136.4516129,0,4086.12903226,0,4215.80645161,0,0,0,?
2018-01-26 08:12:42.070000,4097.41935484,0,4107.09677419,0,4202.58064516,0,4232.58064516,0,4142.58064516,0,4262.25806452,0,4144.83870968,0,4187.41935484,0,4163.5483871,0,4278.06451613,0,4071.61290323,0,4123.22580645,0,4080.64516129,0,4194.83870968,0,0,0,?
2018-01-26 08:12:42.080000,4124.83870968,0,4118.38709677,0,4199.67741935,0,4233.22580645,0,4138.70967742,0,4270.96774194,0,4157.09677419,0,4192.58064516,0,4196.4516129,0,4307.74193548,0,4078.70967742,0,4120.96774194,0,4089.35483871,0,4209.03225806,0,0,0,?
2018-01-26 08:12:42.087000,4119.67741935,0,4136.4516129,0,4171.29032258,0,4201.61290323,0,4178.38709677,0,4272.25806452,0,4180.64516129,0,4174.19354839,0,4165.16129032,0,4295.16129032,0,4082.90322581,0,4126.77419355,0,4093.5483871,0,4206.12903226,0,0,0,?
2018-01-26 08:12:42.093000,4108.06451613,0,4114.83870968,0,4146.4516129,0,4242.25806452,0,4167.74193548,0,4305.80645161,0,4168.38709677,0,4181.29032258,0,4196.12903226,0,4298.06451613,0,4072.25806452,0,4114.83870968,0,4076.12903226,0,4198.06451613,0,0,0,?
2018-01-26 08:12:42.101000,4120.32258065,0,4097.09677419,0,4175.48387097,0,4231.93548387,0,4140.64516129,0,4299.35483871,0,4162.90322581,0,4180.64516129,0,4175.48387097,0,4274.51612903,0,4064.51612903,0,4119.35483871,0,4088.06451613,0,4197.41935484,0,0,0,?
2018-01-26 08:12:42.112000,4113.5483871,0,4146.12903226,0,4163.87096774,0,4228.38709677,0,4156.77419355,0,4258.70967742,0,4180.96774194,0,4193.22580645,0,4208.38709677,0,4300.64516129,0,4074.51612903,0,4130.96774194,0,4108.70967742,0,4193.5483871,0,0,0,?
2018-01-26 08:12:42.118000,4131.29032258,0,4143.22580645,0,4166.12903226,0,4207.74193548,0,4151.61290323,0,4262.58064516,0,4168.70967742,0,4178.38709677,0,4167.41935484,0,4259.67741935,0,4078.70967742,0,4105.80645161,0,4089.67741935,0,4209.03225806,0,0,0,?
2018-01-26 08:12:42.124000,4119.67741935,0,4096.77419355,0,4173.87096774,0,4232.58064516,0,4157.09677419,0,4281.29032258,0,4179.03225806,0,4186.12903226,0,4176.4516129,0,4285.80645161,0,4084.19354839,0,4116.4516129,0,4098.06451613,0,4206.12903226,0,0,0,?
2018-01-26 08:12:42.132000,4120.64516129,0,4120.0,0,4179.03225806,0,4212.25806452,0,4182.90322581,0,4294.19354839,0,4208.06451613,0,4208.06451613,0,4185.48387097,0,4296.4516129,0,4090.64516129,0,4103.87096774,0,4075.80645161,0,4199.35483871,0,0,0,?
2018-01-26 08:12:42.143000,4131.93548387,0,4120.96774194,0,4183.87096774,0,4198.38709677,0,4185.80645161,0,4284.83870968,0,4197.09677419,0,4196.4516129,0,4181.61290323,0,4300.64516129,0,4091.93548387,0,4142.25806452,0,4074.19354839,0,4203.5483871,0,0,0,?
2018-01-26 08:12:42.150000,4114.51612903,0,4142.58064516,0,4178.06451613,0,4233.87096774,0,4166.12903226,0,4281.29032258,0,4186.12903226,0,4186.4516129,0,4179.35483871,0,4270.96774194,0,4090.96774194,0,4115.80645161,0,4070.64516129,0,4200.0,0,0,0,?
2018-01-26 08:12:42.156000,4142.58064516,0,4136.12903226,0,4129.67741935,0,4225.16129032,0,4140.32258065,0,4283.87096774,0,4191.29032258,0,4177.09677419,0,4190.96774194,0,4289.35483871,0,4089.67741935,0,4112.58064516,0,4068.70967742,0,4209.03225806,0,0,0,?
2018-01-26 08:12:42.164000,4129.03225806,0,4141.29032258,0,4193.22580645,0,4221.61290323,0,4139.35483871,0,4280.96774194,0,4190.32258065,0,4169.03225806,0,4170.96774194,0,4305.48387097,0,4098.06451613,0,4125.16129032,0,4069.03225806,0,4199.35483871,0,0,0,?
2018-01-26 08:12:42.175000,4112.58064516,0,4099.67741935,0,4181.93548387,0,4205.48387097,0,4136.77419355,0,4270.64516129,0,4180.64516129,0,4167.41935484,0,4180.96774194,0,4302.25806452,0,4095.80645161,0,4126.12903226,0,4074.51612903,0,4192.58064516,0,0,0,?
2018-01-26 08:12:42.183000,4140.64516129,0,4106.12903226,0,4163.22580645,0,4200.32258065,0,4140.96774194,0,4286.4516129,0,4189.67741935,0,4171.29032258,0,4171.29032258,0,4248.06451613,0,4088.06451613,0,4122.58064516,0,4077.74193548,0,4202.25806452,0,0,0,?
2018-01-26 08:12:42.188000,4126.12903226,0,4098.70967742,0,4168.70967742,0,4227.09677419,0,4170.0,0,4321.29032258,0,4209.03225806,0,4179.67741935,0,4187.41935484,0,4263.22580645,0,4104.19354839,0,4135.16129032,0,4088.38709677,0,4198.38709677,0,0,0,?
2018-01-26 08:12:42.196000,4134.83870968,0,4103.5483871,0,4208.38709677,0,4230.32258065,0,4176.77419355,0,4323.87096774,0,4200.32258065,0,4179.03225806,0,4178.38709677,0,4309.03225806,0,4108.38709677,0,4143.22580645,0,4097.74193548,0,4206.77419355,0,0,0,?
2018-01-26 08:12:42.208000,4131.29032258,0,4106.4516129,0,4169.03225806,0,4225.16129032,0,4164.83870968,0,4314.19354839,0,4200.96774194,0,4186.4516129,0,4193.22580645,0,4266.4516129,0,4093.5483871,0,4097.74193548,0,4104.19354839,0,4200.96774194,0,0,0,?
2018-01-26 08:12:42.214000,4115.80645161,0,4140.96774194,0,4142.25806452,0,4226.77419355,0,4146.12903226,0,4305.48387097,0,4162.90322581,0,4185.48387097,0,4168.38709677,0,4268.70967742,0,4089.35483871,0,4136.4516129,0,4100.64516129,0,4190.32258065,0,0,0,?
2018-01-26 08:12:42.219000,4130.64516129,0,4134.51612903,0,4153.5483871,0,4206.4516129,0,4175.48387097,0,4293.87096774,0,4199.35483871,0,4163.87096774,0,4186.77419355,0,4265.16129032,0,4088.38709677,0,4108.06451613,0,4079.03225806,0,4195.48387097,0,0,0,?
2018-01-26 08:12:42.227000,4118.06451613,0,4140.0,0,4139.67741935,0,4199.67741935,0,4136.4516129,0,4306.4516129,0,4188.06451613,0,4203.87096774,0,4189.03225806,0,4240.32258065,0,4086.77419355,0,4109.67741935,0,4074.83870968,0,4189.67741935,0,0,0,?
2018-01-26 08:12:42.238000,4133.22580645,0,4141.61290323,0,4135.48387097,0,4222.90322581,0,4159.67741935,0,4320.64516129,0,4194.83870968,0,4208.38709677,0,4208.70967742,0,4233.87096774,0,4090.64516129,0,4132.58064516,0,4087.74193548,0,4202.25806452,0,0,0,?
2018-01-26 08:12:42.245000,4134.83870968,0,4138.38709677,0,4165.80645161,0,4200.64516129,0,4154.19354839,0,4312.58064516,0,4210.32258065,0,4172.25806452,0,4178.70967742,0,4258.38709677,0,4097.74193548,0,4141.29032258,0,4092.58064516,0,4206.4516129,0,0,0,?
2018-01-26 08:12:42.251000,4124.83870968,0,4099.67741935,0,4168.38709677,0,4199.67741935,0,4141.93548387,0,4307.41935484,0,4210.64516129,0,4163.22580645,0,4167.09677419,0,4255.16129032,0,4095.48387097,0,4130.64516129,0,4094.19354839,0,4200.0,0,0,0,?
2018-01-26 08:12:42.259000,4151.93548387,0,4121.93548387,0,4174.19354839,0,4196.4516129,0,4169.35483871,0,4325.16129032,0,4205.48387097,0,4201.29032258,0,4205.48387097,0,4214.51612903,0,4093.22580645,0,4128.06451613,0,4104.83870968,0,4208.38709677,0,0,0,?
2018-01-26 08:12:42.270000,4134.83870968,0,4120.96774194,0,4207.74193548,0,4220.64516129,0,4205.80645161,0,4293.87096774,0,4175.16129032,0,4178.70967742,0,4188.70967742,0,4210.32258065,0,4107.09677419,0,4143.22580645,0,4106.12903226,0,4199.67741935,0,0,0,?
2018-01-26 08:12:42.276000,4141.29032258,0,4117.41935484,0,4204.83870968,0,4198.06451613,0,4178.06451613,0,4326.4516129,0,4171.93548387,0,4179.03225806,0,4163.5483871,0,4215.48387097,0,4100.96774194,0,4125.16129032,0,4079.35483871,0,4206.12903226,0,0,0,?
2018-01-26 08:12:42.282000,4147.74193548,0,4119.03225806,0,4135.80645161,0,4230.0,0,4149.35483871,0,4301.29032258,0,4200.0,0,4204.19354839,0,4174.19354839,0,4197.74193548,0,4089.67741935,0,4100.64516129,0,4075.16129032,0,4214.51612903,0,0,0,?
2018-01-26 08:12:42.290000,4121.61290323,0,4117.41935484,0,4173.87096774,0,4205.80645161,0,4169.67741935,0,4313.22580645,0,4206.12903226,0,4209.35483871,0,4194.19354839,0,4207.09677419,0,4097.09677419,0,4118.70967742,0,4099.67741935,0,4199.67741935,0,0,0,?
2018-01-26 08:12:42.302000,4136.12903226,0,4113.5483871,0,4195.16129032,0,4195.48387097,0,4177.09677419,0,4330.32258065,0,4166.12903226,0,4161.93548387,0,4195.80645161,0,4236.4516129,0,4090.96774194,0,4126.4516129,0,4106.77419355,0,4192.90322581,0,0,0,?
2018-01-26 08:12:42.309000,4127.74193548,0,4099.35483871,0,4205.16129032,0,4237.74193548,0,4187.74193548,0,4331.93548387,0,4169.67741935,0,4162.58064516,0,4194.83870968,0,4219.03225806,0,4088.38709677,0,4118.06451613,0,4112.90322581,0,4185.48387097,0,0,0,?
2018-01-26 08:12:42.314000,4137.41935484,0,4107.74193548,0,4135.80645161,0,4203.22580645,0,4205.48387097,0,4295.80645161,0,4181.61290323,0,4179.35483871,0,4206.12903226,0,4217.74193548,0,4105.48387097,0,4124.19354839,0,4115.48387097,0,4192.25806452,0,0,0,?
2018-01-26 08:12:42.322000,4146.77419355,0,4114.19354839,0,4141.29032258,0,4194.83870968,0,4199.03225806,0,4305.48387097,0,4199.35483871,0,4194.83870968,0,4174.19354839,0,4256.77419355,0,4107.74193548,0,4135.80645161,0,4109.67741935,0,4191.61290323,0,0,0,?
2018-01-26 08:12:42.333000,4128.70967742,0,4142.90322581,0,4164.19354839,0,4217.41935484,0,4178.38709677,0,4330.32258065,0,4200.64516129,0,4195.16129032,0,4202.25806452,0,4263.5483871,0,4100.64516129,0,4142.25806452,0,4120.32258065,0,4189.35483871,0,0,0,?
2018-01-26 08:12:42.341000,4153.22580645,0,4146.12903226,0,4156.77419355,0,4210.64516129,0,4168.38709677,0,4309.03225806,0,4195.48387097,0,4193.5483871,0,4209.67741935,0,4238.06451613,0,4106.12903226,0,4146.12903226,0,4133.5483871,0,4210.32258065,0,0,0,?
2018-01-26 08:12:42.346000,4141.93548387,0,4100.0,0,4143.87096774,0,4237.74193548,0,4196.4516129,0,4330.32258065,0,4206.4516129,0,4207.74193548,0,4201.61290323,0,4267.41935484,0,4112.58064516,0,4144.51612903,0,4130.0,0,4197.09677419,0,0,0,?
2018-01-26 08:12:42.354000,4139.03225806,0,4099.35483871,0,4142.90322581,0,4206.77419355,0,4161.29032258,0,4291.61290323,0,4205.80645161,0,4200.32258065,0,4187.41935484,0,4229.35483871,0,4105.80645161,0,4132.25806452,0,4115.48387097,0,4185.48387097,0,0,0,?
2018-01-26 08:12:42.365000,4149.03225806,0,4113.87096774,0,4177.41935484,0,4214.51612903,0,4200.96774194,0,4323.22580645,0,4200.64516129,0,4185.80645161,0,4191.29032258,0,4242.90322581,0,4100.96774194,0,4130.96774194,0,4114.83870968,0,4193.22580645,0,0,0,?
2018-01-26 08:12:42.372000,4128.38709677,0,4107.74193548,0,4165.80645161,0,4202.90322581,0,4190.96774194,0,4314.19354839,0,4200.64516129,0,4193.5483871,0,4183.22580645,0,4226.77419355,0,4097.09677419,0,4131.29032258,0,4123.87096774,0,4197.09677419,0,0,0,?
2018-01-26 08:12:42.377000,4152.25806452,0,4102.90322581,0,4155.48387097,0,4232.25806452,0,4173.87096774,0,4311.61290323,0,4189.03225806,0,4171.29032258,0,4192.90322581,0,4216.12903226,0,4085.16129032,0,4110.32258065,0,4110.96774194,0,4209.67741935,0,0,0,?
2018-01-26 08:12:42.387000,4146.77419355,0,4107.41935484,0,4147.09677419,0,4201.29032258,0,4186.4516129,0,4322.58064516,0,4189.35483871,0,4207.09677419,0,4199.67741935,0,4214.83870968,0,4089.35483871,0,4107.74193548,0,4110.64516129,0,4194.51612903,0,0,0,?
2018-01-26 08:12:42.396000,4136.4516129,0,4110.64516129,0,4142.90322581,0,4221.93548387,0,4206.4516129,0,4303.5483871,0,4211.29032258,0,4190.96774194,0,4189.67741935,0,4236.77419355,0,4098.70967742,0,4122.25806452,0,4124.83870968,0,4188.06451613,0,0,0,?
2018-01-26 08:12:42.403000,4150.96774194,0,4119.67741935,0,4167.09677419,0,4217.09677419,0,4166.77419355,0,4320.96774194,0,4234.51612903,0,4214.51612903,0,4200.96774194,0,4256.12903226,0,4100.64516129,0,4137.09677419,0,4122.90322581,0,4202.25806452,0,0,0,?
2018-01-26 08:12:42.409000,4132.25806452,0,4122.25806452,0,4158.06451613,0,4219.03225806,0,4190.64516129,0,4314.51612903,0,4240.32258065,0,4200.96774194,0,4201.93548387,0,4256.4516129,0,4102.25806452,0,4143.87096774,0,4134.19354839,0,4197.74193548,0,0,0,?
2018-01-26 08:12:42.417000,4142.58064516,0,4112.58064516,0,4129.35483871,0,4198.70967742,0,4184.51612903,0,4301.61290323,0,4210.32258065,0,4174.51612903,0,4183.5483871,0,4214.51612903,0,4088.06451613,0,4112.58064516,0,4137.41935484,0,4196.12903226,0,0,0,?
2018-01-26 08:12:42.427000,4138.70967742,0,4138.06451613,0,4135.48387097,0,4235.80645161,0,4170.0,0,4308.38709677,0,4196.77419355,0,4177.41935484,0,4210.96774194,0,4217.41935484,0,4079.35483871,0,4103.87096774,0,4118.70967742,0,4180.32258065,0,0,0,?
2018-01-26 08:12:42.433000,4137.74193548,0,4144.83870968,0,4163.22580645,0,4241.29032258,0,4161.61290323,0,4310.0,0,4215.48387097,0,4186.4516129,0,4209.03225806,0,4207.09677419,0,4086.4516129,0,4133.87096774,0,4119.67741935,0,4174.19354839,0,0,0,?
2018-01-26 08:12:42.440000,4166.77419355,0,4122.90322581,0,4161.61290323,0,4198.06451613,0,4205.48387097,0,4303.22580645,0,4220.96774194,0,4187.74193548,0,4173.22580645,0,4202.25806452,0,4100.0,0,4142.25806452,0,4099.03225806,0,4200.32258065,0,0,0,?
2018-01-26 08:12:42.448000,4148.38709677,0,4111.61290323,0,4136.77419355,0,4215.16129032,0,4163.5483871,0,4301.29032258,0,4216.12903226,0,4198.70967742,0,4193.87096774,0,4190.0,0,4109.35483871,0,4137.41935484,0,4117.41935484,0,4205.48387097,0,0,0,?
2018-01-26 08:12:42.458000,4151.93548387,0,4102.90322581,0,4141.61290323,0,4195.16129032,0,4204.51612903,0,4337.41935484,0,4207.41935484,0,4190.0,0,4173.5483871,0,4180.32258065,0,4093.87096774,0,4135.48387097,0,4144.19354839,0,4203.87096774,0,0,0,?
2018-01-26 08:12:42.464000,4156.77419355,0,4121.29032258,0,4190.64516129,0,4224.51612903,0,4201.61290323,0,4293.22580645,0,4211.29032258,0,4190.32258065,0,4171.93548387,0,4199.35483871,0,4089.03225806,0,4141.29032258,0,4138.38709677,0,4200.32258065,0,0,0,?
2018-01-26 08:12:42.471000,4147.74193548,0,4132.25806452,0,4188.70967742,0,4236.4516129,0,4203.5483871,0,4293.5483871,0,4214.19354839,0,4203.5483871,0,4198.06451613,0,4213.22580645,0,4110.96774194,0,4140.64516129,0,4103.22580645,0,4191.29032258,0,0,0,?
2018-01-26 08:12:42.479000,4160.96774194,0,4123.87096774,0,4152.58064516,0,4232.25806452,0,4189.35483871,0,4312.58064516,0,4194.83870968,0,4186.12903226,0,4175.16129032,0,4210.96774194,0,4112.58064516,0,4126.77419355,0,4140.64516129,0,4192.58064516,0,0,0,?
2018-01-26 08:12:42.490000,4141.29032258,0,4115.16129032,0,4163.22580645,0,4227.74193548,0,4199.67741935,0,4305.80645161,0,4209.03225806,0,4182.58064516,0,4210.64516129,0,4230.32258065,0,4106.12903226,0,4133.87096774,0,4132.25806452,0,4189.35483871,0,0,0,?
2018-01-26 08:12:42.496000,4146.12903226,0,4114.51612903,0,4132.25806452,0,4227.09677419,0,4164.83870968,0,4319.67741935,0,4233.87096774,0,4189.67741935,0,4171.61290323,0,4231.93548387,0,4110.96774194,0,4140.64516129,0,4096.77419355,0,4198.70967742,0,0,0,?
2018-01-26 08:12:42.504000,4145.48387097,0,4100.96774194,0,4135.16129032,0,4224.19354839,0,4167.41935484,0,4314.51612903,0,4227.09677419,0,4188.38709677,0,4175.48387097,0,4232.90322581,0,4107.74193548,0,4139.35483871,0,4106.77419355,0,4193.5483871,0,0,0,?
2018-01-26 08:12:42.512000,4134.51612903,0,4099.35483871,0,4174.83870968,0,4219.67741935,0,4164.83870968,0,4298.38709677,0,4218.38709677,0,4193.87096774,0,4164.83870968,0,4197.74193548,0,4097.41935484,0,4140.96774194,0,4145.48387097,0,4181.93548387,0,0,0,?
2018-01-26 08:12:42.522000,4162.90322581,0,4113.5483871,0,4148.38709677,0,4223.5483871,0,4205.80645161,0,4293.5483871,0,4218.70967742,0,4191.61290323,0,4197.41935484,0,4233.5483871,0,4091.29032258,0,4136.4516129,0,4135.16129032,0,4192.90322581,0,0,0,?
2018-01-26 08:12:42.528000,4143.87096774,0,4097.74193548,0,4168.70967742,0,4228.38709677,0,4203.5483871,0,4296.12903226,0,4228.38709677,0,4193.22580645,0,4210.32258065,0,4217.74193548,0,4097.41935484,0,4135.16129032,0,4099.03225806,0,4183.87096774,0,0,0,?
2018-01-26 08:12:42.534000,4143.87096774,0,4143.22580645,0,4167.41935484,0,4200.0,0,4185.80645161,0,4288.38709677,0,4221.61290323,0,4195.16129032,0,4170.96774194,0,4203.87096774,0,4106.77419355,0,4140.32258065,0,4107.74193548,0,4187.09677419,0,0,0,?
2018-01-26 08:12:42.542000,4155.48387097,0,4123.22580645,0,4148.38709677,0,4200.64516129,0,4174.51612903,0,4280.0,0,4212.90322581,0,4192.58064516,0,4211.29032258,0,4184.19354839,0,4114.83870968,0,4101.93548387,0,4110.0,0,4203.5483871,0,0,0,?
2018-01-26 08:12:42.553000,4142.25806452,0,4138.38709677,0,4156.77419355,0,4230.32258065,0,4197.74193548,0,4288.38709677,0,4219.03225806,0,4192.58064516,0,4209.67741935,0,4184.19354839,0,4120.32258065,0,4106.77419355,0,4122.25806452,0,4209.03225806,0,0,0,?
2018-01-26 08:12:42.560000,4164.19354839,0,4130.64516129,0,4149.67741935,0,4211.61290323,0,4204.51612903,0,4290.64516129,0,4215.48387097,0,4184.51612903,0,4161.61290323,0,4194.19354839,0,4120.0,0,4097.41935484,0,4130.64516129,0,4213.5483871,0,0,0,?
2018-01-26 08:12:42.568000,4151.29032258,0,4130.96774194,0,4169.03225806,0,4200.64516129,0,4189.03225806,0,4282.90322581,0,4223.87096774,0,4187.09677419,0,4169.35483871,0,4190.0,0,4125.48387097,0,4144.83870968,0,4137.74193548,0,4202.58064516,0,0,0,?
2018-01-26 08:12:42.575000,4153.5483871,0,4145.16129032,0,4148.70967742,0,4206.77419355,0,4170.0,0,4285.80645161,0,4237.41935484,0,4184.19354839,0,4200.96774194,0,4206.12903226,0,4131.29032258,0,4099.35483871,0,4140.64516129,0,4215.80645161,0,0,0,?
2018-01-26 08:12:42.586000,4171.29032258,0,4140.64516129,0,4131.93548387,0,4200.0,0,4168.70967742,0,4286.4516129,0,4236.4516129,0,4179.03225806,0,4186.4516129,0,4169.03225806,0,4134.83870968,0,4113.22580645,0,4137.09677419,0,4221.93548387,0,0,0,?
2018-01-26 08:12:42.593000,4154.51612903,0,4130.32258065,0,4188.06451613,0,4201.29032258,0,4181.93548387,0,4274.19354839,0,4227.74193548,0,4188.70967742,0,4164.19354839,0,4203.22580645,0,4135.16129032,0,4124.51612903,0,4140.0,0,4197.09677419,0,0,0,?
2018-01-26 08:12:42.598000,4175.48387097,0,4147.74193548,0,4171.93548387,0,4197.09677419,0,4164.83870968,0,4272.25806452,0,4220.0,0,4183.5483871,0,4207.09677419,0,4234.51612903,0,4130.32258065,0,4115.48387097,0,4140.64516129,0,4200.64516129,0,0,0,?
2018-01-26 08:12:42.606000,4162.58064516,0,4140.0,0,4174.83870968,0,4179.03225806,0,4144.19354839,0,4270.96774194,0,4219.67741935,0,4161.29032258,0,4173.5483871,0,4207.09677419,0,4128.06451613,0,4100.96774194,0,4141.93548387,0,4197.09677419,0,0,0,?
2018-01-26 08:12:42.616000,4153.5483871,0,4116.4516129,0,4153.22580645,0,4208.06451613,0,4140.0,0,4295.16129032,0,4211.61290323,0,4190.0,0,4159.67741935,0,4240.32258065,0,4123.22580645,0,4139.03225806,0,4143.87096774,0,4205.16129032,0,0,0,?
2018-01-26 08:12:42.622000,4178.06451613,0,4130.64516129,0,4145.80645161,0,4167.09677419,0,4142.58064516,0,4299.35483871,0,4216.77419355,0,4205.16129032,0,4189.03225806,0,4217.74193548,0,4126.77419355,0,4099.03225806,0,4158.38709677,0,4233.22580645,0,0,0,?
2018-01-26 08:12:42.630000,4161.61290323,0,4151.61290323,0,4163.87096774,0,4190.64516129,0,4151.61290323,0,4271.93548387,0,4242.90322581,0,4175.48387097,0,4163.22580645,0,4252.58064516,0,4135.80645161,0,4121.61290323,0,4133.5483871,0,4222.25806452,0,0,0,?
2018-01-26 08:12:42.638000,4169.03225806,0,4150.32258065,0,4195.80645161,0,4170.0,0,4148.06451613,0,4289.67741935,0,4239.67741935,0,4199.67741935,0,4168.06451613,0,4220.32258065,0,4123.22580645,0,4100.64516129,0,4172.90322581,0,4214.83870968,0,0,0,?
2018-01-26 08:12:42.648000,4169.03225806,0,4140.96774194,0,4168.70967742,0,4162.58064516,0,4155.80645161,0,4283.5483871,0,4227.09677419,0,4194.83870968,0,4160.96774194,0,4207.74193548,0,4121.29032258,0,4141.93548387,0,4155.16129032,0,4220.64516129,0,0,0,?
2018-01-26 08:12:42.656000,4173.5483871,0,4147.74193548,0,4160.96774194,0,4174.83870968,0,4160.96774194,0,4289.03225806,0,4235.80645161,0,4167.09677419,0,4203.87096774,0,4244.19354839,0,4133.87096774,0,4111.93548387,0,4161.29032258,0,4231.29032258,0,0,0,?
2018-01-26 08:12:42.661000,4139.35483871,0,4152.90322581,0,4199.03225806,0,4166.4516129,0,4150.64516129,0,4299.35483871,0,4235.16129032,0,4210.64516129,0,4186.77419355,0,4221.61290323,0,4124.83870968,0,4101.61290323,0,4161.93548387,0,4238.70967742,0,0,0,?
2018-01-26 08:12:42.669000,4161.93548387,0,4136.77419355,0,4193.87096774,0,4171.61290323,0,4152.90322581,0,4271.93548387,0,4221.93548387,0,4197.09677419,0,4137.41935484,0,4213.87096774,0,4120.0,0,4134.51612903,0,4153.87096774,0,4227.09677419,0,0,0,?
2018-01-26 08:12:42.680000,4171.93548387,0,4133.5483871,0,4176.12903226,0,4176.4516129,0,4139.03225806,0,4275.80645161,0,4204.83870968,0,4196.4516129,0,4167.41935484,0,4193.5483871,0,4115.16129032,0,4133.22580645,0,4142.25806452,0,4223.22580645,0,0,0,?
2018-01-26 08:12:42.687000,4175.16129032,0,4130.64516129,0,4177.41935484,0,4184.19354839,0,4147.09677419,0,4297.41935484,0,4212.58064516,0,4167.09677419,0,4151.93548387,0,4198.06451613,0,4106.77419355,0,4145.80645161,0,4152.58064516,0,4209.35483871,0,0,0,?
2018-01-26 08:12:42.693000,4167.74193548,0,4133.5483871,0,4191.93548387,0,4203.22580645,0,4187.74193548,0,4310.96774194,0,4235.48387097,0,4184.83870968,0,4189.67741935,0,4186.77419355,0,4110.32258065,0,4108.06451613,0,4169.35483871,0,4203.22580645,0,0,0,?
2018-01-26 08:12:42.701000,4134.19354839,0,4158.06451613,0,4204.19354839,0,4207.09677419,0,4193.5483871,0,4316.12903226,0,4239.35483871,0,4171.29032258,0,4180.64516129,0,4186.77419355,0,4108.06451613,0,4099.67741935,0,4152.58064516,0,4204.83870968,0,0,0,?
2018-01-26 08:12:42.711000,4164.19354839,0,4151.29032258,0,4155.48387097,0,4203.5483871,0,4175.16129032,0,4311.61290323,0,4240.64516129,0,4170.32258065,0,4182.58064516,0,4230.64516129,0,4096.4516129,0,4142.90322581,0,4142.90322581,0,4187.09677419,0,0,0,?
2018-01-26 08:12:42.717000,4131.29032258,0,4129.35483871,0,4160.64516129,0,4198.06451613,0,4162.25806452,0,4303.5483871,0,4237.41935484,0,4187.09677419,0,4192.58064516,0,4221.29032258,0,4090.64516129,0,4099.03225806,0,4149.03225806,0,4186.12903226,0,0,0,?
2018-01-26 08:12:42.723000,4137.09677419,0,4128.70967742,0,4135.80645161,0,4204.83870968,0,4190.0,0,4313.87096774,0,4193.5483871,0,4193.22580645,0,4193.5483871,0,4212.25806452,0,4094.19354839,0,4102.25806452,0,4150.64516129,0,4184.51612903,0,0,0,?
2018-01-26 08:12:42.732000,4164.19354839,0,4129.67741935,0,4144.83870968,0,4204.19354839,0,4163.87096774,0,4316.77419355,0,4195.80645161,0,4182.90322581,0,4188.38709677,0,4218.06451613,0,4091.29032258,0,4146.77419355,0,4147.09677419,0,4180.0,0,0,0,?
2018-01-26 08:12:42.741000,4178.06451613,0,4124.19354839,0,4151.93548387,0,4193.5483871,0,4182.25806452,0,4283.22580645,0,4225.80645161,0,4162.25806452,0,4164.19354839,0,4210.32258065,0,4089.35483871,0,4138.38709677,0,4138.06451613,0,4187.41935484,0,0,0,?
2018-01-26 08:12:42.748000,4160.0,0,4114.19354839,0,4153.5483871,0,4194.83870968,0,4162.58064516,0,4265.16129032,0,4225.16129032,0,4161.93548387,0,4159.35483871,0,4239.03225806,0,4096.12903226,0,4138.38709677,0,4136.12903226,0,4183.22580645,0,0,0,?
2018-01-26 08:12:42.757000,4166.4516129,0,4120.64516129,0,4135.80645161,0,4190.32258065,0,4171.29032258,0,4280.96774194,0,4233.87096774,0,4210.0,0,4158.38709677,0,4210.96774194,0,4091.93548387,0,4134.19354839,0,4138.06451613,0,4189.03225806,0,0,0,?
2018-01-26 08:12:42.765000,4176.77419355,0,4130.64516129,0,4160.64516129,0,4208.06451613,0,4191.29032258,0,4290.64516129,0,4233.22580645,0,4210.96774194,0,4155.48387097,0,4186.4516129,0,4091.93548387,0,4126.12903226,0,4142.58064516,0,4180.0,0,0,0,?
2018-01-26 08:12:42.774000,4163.22580645,0,4125.48387097,0,4160.0,0,4229.67741935,0,4192.58064516,0,4283.5483871,0,4227.09677419,0,4177.74193548,0,4163.87096774,0,4229.67741935,0,4094.83870968,0,4117.09677419,0,4146.77419355,0,4166.4516129,0,0,0,?
2018-01-26 08:12:42.782000,4134.19354839,0,4123.87096774,0,4136.12903226,0,4204.51612903,0,4166.12903226,0,4271.93548387,0,4221.93548387,0,4173.22580645,0,4169.03225806,0,4241.29032258,0,4090.0,0,4109.35483871,0,4135.48387097,0,4185.48387097,0,0,0,?
2018-01-26 08:12:42.787000,4165.80645161,0,4118.38709677,0,4151.29032258,0,4198.06451613,0,4167.41935484,0,4277.09677419,0,4227.09677419,0,4170.0,0,4190.96774194,0,4207.74193548,0,4091.29032258,0,4113.5483871,0,4140.0,0,4182.90322581,0,0,0,?
2018-01-26 08:12:42.795000,4168.06451613,0,4119.67741935,0,4152.58064516,0,4210.0,0,4180.0,0,4293.22580645,0,4225.80645161,0,4161.93548387,0,4182.90322581,0,4175.48387097,0,4091.93548387,0,4110.0,0,4158.06451613,0,4173.5483871,0,0,0,?
2018-01-26 08:12:42.806000,4134.19354839,0,4126.77419355,0,4131.61290323,0,4203.22580645,0,4178.06451613,0,4310.0,0,4230.64516129,0,4204.19354839,0,4162.25806452,0,4172.25806452,0,4092.90322581,0,4113.22580645,0,4158.38709677,0,4170.0,0,0,0,?
2018-01-26 08:12:42.812000,4159.35483871,0,4128.38709677,0,4161.29032258,0,4199.67741935,0,4167.41935484,0,4320.0,0,4243.22580645,0,4166.77419355,0,4181.29032258,0,4188.06451613,0,4102.25806452,0,4127.09677419,0,4155.16129032,0,4206.77419355,0,0,0,?
2018-01-26 08:12:42.819000,4173.5483871,0,4128.06451613,0,4166.77419355,0,4193.5483871,0,4155.48387097,0,4315.16129032,0,4233.22580645,0,4210.0,0,4171.93548387,0,4175.80645161,0,4094.51612903,0,4118.38709677,0,4151.61290323,0,4209.67741935,0,0,0,?
2018-01-26 08:12:42.827000,4168.06451613,0,4119.67741935,0,4175.48387097,0,4191.29032258,0,4167.74193548,0,4309.35483871,0,4222.58064516,0,4188.06451613,0,4143.22580645,0,4183.22580645,0,4089.35483871,0,4116.12903226,0,4152.58064516,0,4208.06451613,0,0,0,?
2018-01-26 08:12:42.838000,4171.29032258,0,4132.58064516,0,4131.93548387,0,4194.83870968,0,4178.70967742,0,4311.93548387,0,4221.93548387,0,4182.90322581,0,4152.90322581,0,4235.80645161,0,4103.87096774,0,4121.61290323,0,4163.5483871,0,4167.09677419,0,0,0,?
2018-01-26 08:12:42.845000,4142.58064516,0,4152.58064516,0,4176.77419355,0,4205.48387097,0,4174.51612903,0,4318.38709677,0,4230.32258065,0,4163.22580645,0,4185.80645161,0,4217.74193548,0,4102.58064516,0,4119.03225806,0,4130.0,0,4178.38709677,0,0,0,?
2018-01-26 08:12:42.850000,4178.06451613,0,4137.41935484,0,4184.19354839,0,4204.19354839,0,4178.70967742,0,4314.51612903,0,4196.77419355,0,4185.80645161,0,4187.74193548,0,4198.38709677,0,4099.67741935,0,4126.12903226,0,4131.29032258,0,4161.61290323,0,0,0,?
2018-01-26 08:12:42.858000,4141.29032258,0,4123.87096774,0,4136.77419355,0,4179.35483871,0,4180.64516129,0,4302.58064516,0,4242.90322581,0,4163.22580645,0,4160.32258065,0,4217.41935484,0,4101.93548387,0,4130.64516129,0,4166.12903226,0,4209.03225806,0,0,0,?
2018-01-26 08:12:42.869000,4172.25806452,0,4125.80645161,0,4152.90322581,0,4185.48387097,0,4184.83870968,0,4312.25806452,0,4240.32258065,0,4207.09677419,0,4180.32258065,0,4225.80645161,0,4096.12903226,0,4133.87096774,0,4131.61290323,0,4206.4516129,0,0,0,?
2018-01-26 08:12:42.876000,4164.51612903,0,4131.29032258,0,4169.35483871,0,4191.29032258,0,4185.80645161,0,4320.32258065,0,4204.19354839,0,4166.12903226,0,4194.19354839,0,4243.5483871,0,4101.93548387,0,4134.51612903,0,4145.16129032,0,4206.77419355,0,0,0,?
2018-01-26 08:12:42.882000,4148.06451613,0,4138.38709677,0,4165.16129032,0,4177.41935484,0,4196.77419355,0,4317.09677419,0,4217.09677419,0,4173.87096774,0,4179.35483871,0,4210.0,0,4120.96774194,0,4141.61290323,0,4140.0,0,4210.96774194,0,0,0,?
2018-01-26 08:12:42.890000,4131.61290323,0,4134.51612903,0,4196.77419355,0,4190.96774194,0,4211.29032258,0,4315.80645161,0,4224.19354839,0,4183.22580645,0,4190.0,0,4200.96774194,0,4125.48387097,0,4107.41935484,0,4151.93548387,0,4201.93548387,0,0,0,?
2018-01-26 08:12:42.901000,4134.83870968,0,4134.19354839,0,4136.4516129,0,4206.4516129,0,4193.87096774,0,4306.77419355,0,4211.29032258,0,4208.70967742,0,4189.67741935,0,4176.12903226,0,4109.67741935,0,4140.96774194,0,4155.16129032,0,4210.32258065,0,0,0,?
2018-01-26 08:12:42.906000,4133.5483871,0,4142.58064516,0,4149.03225806,0,4219.67741935,0,4206.77419355,0,4314.19354839,0,4215.48387097,0,4200.64516129,0,4180.96774194,0,4199.35483871,0,4114.19354839,0,4133.5483871,0,4154.51612903,0,4210.32258065,0,0,0,?
2018-01-26 08:12:42.916000,4178.70967742,0,4157.41935484,0,4166.12903226,0,4225.80645161,0,4175.48387097,0,4330.64516129,0,4227.09677419,0,4173.5483871,0,4165.16129032,0,4191.29032258,0,4126.4516129,0,4100.32258065,0,4161.29032258,0,4163.87096774,0,0,0,?
2018-01-26 08:12:42.922000,4140.0,0,4160.64516129,0,4182.90322581,0,4217.09677419,0,4206.77419355,0,4331.61290323,0,4214.19354839,0,4166.77419355,0,4144.51612903,0,4209.35483871,0,4117.74193548,0,4138.06451613,0,4158.06451613,0,4169.67741935,0,0,0,?
2018-01-26 08:12:42.932000,4167.41935484,0,4133.22580645,0,4130.64516129,0,4209.35483871,0,4164.83870968,0,4335.16129032,0,4214.51612903,0,4204.19354839,0,4163.5483871,0,4188.06451613,0,4120.32258065,0,4118.06451613,0,4148.38709677,0,4201.29032258,0,0,0,?
2018-01-26 08:12:42.940000,4130.64516129,0,4129.03225806,0,4158.38709677,0,4190.32258065,0,4177.74193548,0,4333.87096774,0,4224.83870968,0,4161.29032258,0,4181.61290323,0,4164.19354839,0,4115.80645161,0,4116.4516129,0,4130.64516129,0,4167.09677419,0,0,0,?
2018-01-26 08:12:42.946000,4133.22580645,0,4141.93548387,0,4158.70967742,0,4185.80645161,0,4175.80645161,0,4329.03225806,0,4231.93548387,0,4189.03225806,0,4204.19354839,0,4199.35483871,0,4106.77419355,0,4123.87096774,0,4138.06451613,0,4180.96774194,0,0,0,?
2018-01-26 08:12:42.954000,4174.19354839,0,4134.51612903,0,4140.0,0,4185.48387097,0,4171.93548387,0,4324.19354839,0,4237.09677419,0,4200.64516129,0,4175.48387097,0,4271.93548387,0,4117.09677419,0,4123.87096774,0,4166.12903226,0,4174.83870968,0,0,0,?
2018-01-26 08:12:42.963000,4143.87096774,0,4128.70967742,0,4158.70967742,0,4167.74193548,0,4198.70967742,0,4313.87096774,0,4236.4516129,0,4180.64516129,0,4207.09677419,0,4301.61290323,0,4121.61290323,0,4130.64516129,0,4170.32258065,0,4188.06451613,0,0,0,?
2018-01-26 08:12:42.971000,4173.5483871,0,4131.29032258,0,4151.61290323,0,4179.03225806,0,4184.19354839,0,4311.93548387,0,4227.09677419,0,4176.4516129,0,4196.12903226,0,4290.64516129,0,4115.16129032,0,4101.61290323,0,4167.41935484,0,4186.4516129,0,0,0,?
2018-01-26 08:12:42.976000,4135.16129032,0,4146.12903226,0,4172.25806452,0,4194.19354839,0,4187.09677419,0,4310.64516129,0,4209.03225806,0,4173.87096774,0,4182.25806452,0,4338.70967742,0,4111.93548387,0,4142.58064516,0,4162.90322581,0,4189.35483871,0,0,0,?
2018-01-26 08:12:42.984000,4139.35483871,0,4158.38709677,0,4164.19354839,0,4196.77419355,0,4195.16129032,0,4294.51612903,0,4214.83870968,0,4166.77419355,0,4160.0,0,4373.5483871,0,4120.64516129,0,4127.09677419,0,4159.67741935,0,4192.58064516,0,0,0,?
2018-01-26 08:12:42.994000,4163.87096774,0,4154.51612903,0,4158.06451613,0,4193.22580645,0,4190.32258065,0,4282.25806452,0,4231.29032258,0,4171.93548387,0,4168.38709677,0,4416.12903226,0,4129.67741935,0,4140.96774194,0,4163.22580645,0,4183.22580645,0,0,0,?
2018-01-26 08:12:43.003000,4139.35483871,0,4154.83870968,0,4150.0,0,4183.87096774,0,4189.03225806,0,4282.25806452,0,4224.19354839,0,4174.83870968,0,4190.64516129,0,4437.09677419,0,4129.67741935,0,4097.41935484,0,4160.96774194,0,4183.5483871,0,0,0,?
2018-01-26 08:12:43.008000,4129.03225806,0,4156.4516129,0,4157.09677419,0,4200.0,0,4205.16129032,0,4278.70967742,0,4219.67741935,0,4179.03225806,0,4204.51612903,0,4395.16129032,0,4123.87096774,0,4136.12903226,0,4163.5483871,0,4176.12903226,0,0,0,?
2018-01-26 08:12:43.016000,4176.4516129,0,4148.06451613,0,4130.32258065,0,4193.87096774,0,4181.61290323,0,4306.4516129,0,4207.74193548,0,4209.67741935,0,4169.67741935,0,4399.35483871,0,4115.80645161,0,4119.03225806,0,4162.25806452,0,4188.06451613,0,0,0,?
2018-01-26 08:12:43.026000,4141.61290323,0,4131.93548387,0,4142.58064516,0,4209.03225806,0,4164.19354839,0,4284.83870968,0,4193.87096774,0,4191.29032258,0,4147.74193548,0,4382.25806452,0,4127.74193548,0,4128.38709677,0,4170.0,0,4193.22580645,0,0,0,?
2018-01-26 08:12:43.032000,4178.38709677,0,4127.74193548,0,4161.93548387,0,4202.25806452,0,4183.5483871,0,4281.29032258,0,4207.74193548,0,4206.12903226,0,4176.77419355,0,4401.93548387,0,4141.29032258,0,4103.5483871,0,4196.12903226,0,4172.58064516,0,0,0,?
2018-01-26 08:12:43.039000,4137.74193548,0,4146.77419355,0,4179.03225806,0,4208.06451613,0,4190.64516129,0,4281.61290323,0,4213.5483871,0,4167.09677419,0,4188.06451613,0,4376.4516129,0,4128.06451613,0,4100.0,0,4202.90322581,0,4175.16129032,0,0,0,?
2018-01-26 08:12:43.047000,4178.38709677,0,4159.03225806,0,4161.61290323,0,4166.77419355,0,4203.22580645,0,4287.41935484,0,4218.06451613,0,4176.77419355,0,4181.61290323,0,4391.61290323,0,4130.0,0,4146.77419355,0,4195.48387097,0,4177.09677419,0,0,0,?
2018-01-26 08:12:43.057000,4138.38709677,0,4158.70967742,0,4166.77419355,0,4168.70967742,0,4200.64516129,0,4295.48387097,0,4230.32258065,0,4181.93548387,0,4177.09677419,0,4414.51612903,0,4146.4516129,0,4107.74193548,0,4197.74193548,0,4186.12903226,0,0,0,?
2018-01-26 08:12:43.063000,4147.74193548,0,4146.12903226,0,4105.80645161,0,4166.77419355,0,4184.51612903,0,4305.16129032,0,4227.09677419,0,4170.64516129,0,4191.29032258,0,4401.29032258,0,4141.61290323,0,4113.5483871,0,4205.48387097,0,4189.67741935,0,0,0,?
2018-01-26 08:12:43.070000,4175.16129032,0,4131.61290323,0,4163.87096774,0,4164.51612903,0,4194.19354839,0,4268.06451613,0,4222.90322581,0,4174.51612903,0,4171.61290323,0,4388.06451613,0,4140.0,0,4110.32258065,0,4163.22580645,0,4169.03225806,0,0,0,?
2018-01-26 08:12:43.078000,4150.64516129,0,4149.03225806,0,4172.58064516,0,4198.38709677,0,4202.58064516,0,4304.19354839,0,4222.58064516,0,4177.41935484,0,4163.5483871,0,4387.41935484,0,4098.70967742,0,4100.32258065,0,4167.74193548,0,4170.96774194,0,0,0,?
2018-01-26 08:12:43.089000,4137.74193548,0,4162.90322581,0,4139.67741935,0,4195.16129032,0,4196.12903226,0,4282.90322581,0,4220.32258065,0,4173.5483871,0,4203.5483871,0,4429.35483871,0,4145.16129032,0,4101.93548387,0,4168.70967742,0,4174.83870968,0,0,0,?
2018-01-26 08:12:43.095000,4172.58064516,0,4152.25806452,0,4135.48387097,0,4195.80645161,0,4185.16129032,0,4283.87096774,0,4209.35483871,0,4168.38709677,0,4203.22580645,0,4406.12903226,0,4125.16129032,0,4102.90322581,0,4207.41935484,0,4179.03225806,0,0,0,?
2018-01-26 08:12:43.105000,4145.16129032,0,4138.06451613,0,4147.74193548,0,4195.80645161,0,4183.5483871,0,4293.22580645,0,4208.38709677,0,4161.29032258,0,4188.70967742,0,4375.16129032,0,4118.70967742,0,4141.93548387,0,4199.67741935,0,4176.77419355,0,0,0,?
2018-01-26 08:12:43.112000,4176.12903226,0,4131.61290323,0,4141.61290323,0,4192.58064516,0,4191.93548387,0,4299.35483871,0,4216.4516129,0,4206.77419355,0,4180.32258065,0,4376.4516129,0,4130.0,0,4136.4516129,0,4207.09677419,0,4162.90322581,0,0,0,?
2018-01-26 08:12:43.121000,4177.74193548,0,4140.0,0,4175.80645161,0,4162.58064516,0,4182.25806452,0,4297.09677419,0,4206.77419355,0,4205.48387097,0,4165.80645161,0,4380.32258065,0,4128.70967742,0,4133.87096774,0,4193.87096774,0,4171.29032258,0,0,0,?
2018-01-26 08:12:43.129000,4170.32258065,0,4135.16129032,0,4143.87096774,0,4171.61290323,0,4185.80645161,0,4306.12903226,0,4211.93548387,0,4175.16129032,0,4172.58064516,0,4394.51612903,0,4132.90322581,0,4101.61290323,0,4189.35483871,0,4163.87096774,0,0,0,?
2018-01-26 08:12:43.134000,4174.19354839,0,4127.74193548,0,4140.0,0,4207.74193548,0,4188.38709677,0,4304.19354839,0,4215.80645161,0,4176.12903226,0,4180.64516129,0,4357.41935484,0,4146.12903226,0,4111.61290323,0,4200.0,0,4203.5483871,0,0,0,?
2018-01-26 08:12:43.142000,4149.35483871,0,4135.16129032,0,4155.16129032,0,4206.4516129,0,4170.0,0,4296.12903226,0,4197.41935484,0,4206.77419355,0,4160.64516129,0,4330.96774194,0,4143.5483871,0,4141.93548387,0,4188.70967742,0,4161.29032258,0,0,0,?
2018-01-26 08:12:43.152000,4171.93548387,0,4135.80645161,0,4142.58064516,0,4203.22580645,0,4183.22580645,0,4263.22580645,0,4197.74193548,0,4164.51612903,0,4163.5483871,0,4380.32258065,0,4139.67741935,0,4138.06451613,0,4184.51612903,0,4163.87096774,0,0,0,?
2018-01-26 08:12:43.159000,4134.19354839,0,4149.03225806,0,4150.0,0,4206.4516129,0,4192.90322581,0,4270.0,0,4211.93548387,0,4171.93548387,0,4169.03225806,0,4387.74193548,0,4096.77419355,0,4103.5483871,0,4197.41935484,0,4181.61290323,0,0,0,?
2018-01-26 08:12:43.165000,4149.03225806,0,4154.51612903,0,4174.83870968,0,4208.38709677,0,4190.64516129,0,4268.06451613,0,4220.96774194,0,4184.51612903,0,4190.96774194,0,4377.41935484,0,4109.67741935,0,4110.64516129,0,4210.32258065,0,4175.80645161,0,0,0,?
2018-01-26 08:12:43.173000,4136.4516129,0,4143.87096774,0,4173.87096774,0,4205.48387097,0,4203.87096774,0,4269.67741935,0,4216.77419355,0,4192.58064516,0,4169.67741935,0,4377.41935484,0,4108.70967742,0,4100.64516129,0,4210.64516129,0,4161.93548387,0,0,0,?
2018-01-26 08:12:43.184000,4144.51612903,0,4147.09677419,0,4175.80645161,0,4203.5483871,0,4206.77419355,0,4263.22580645,0,4214.51612903,0,4181.93548387,0,4200.0,0,4403.22580645,0,4141.29032258,0,4097.09677419,0,4204.19354839,0,4178.06451613,0,0,0,?
2018-01-26 08:12:43.190000,4177.74193548,0,4142.90322581,0,4160.64516129,0,4210.0,0,4191.93548387,0,4293.87096774,0,4225.48387097,0,4181.93548387,0,4173.87096774,0,4395.48387097,0,4139.67741935,0,4105.80645161,0,4207.09677419,0,4177.74193548,0,0,0,?
2018-01-26 08:12:43.196000,4131.61290323,0,4150.64516129,0,4172.90322581,0,4196.77419355,0,4179.67741935,0,4274.83870968,0,4215.48387097,0,4177.41935484,0,4180.0,0,4382.58064516,0,4146.77419355,0,4099.67741935,0,4203.87096774,0,4171.93548387,0,0,0,?
2018-01-26 08:12:43.205000,4178.70967742,0,4163.22580645,0,4155.16129032,0,4200.64516129,0,4191.29032258,0,4280.32258065,0,4205.80645161,0,4176.77419355,0,4189.35483871,0,4390.32258065,0,4097.41935484,0,4100.32258065,0,4204.83870968,0,4162.90322581,0,0,0,?
2018-01-26 08:12:43.216000,4177.41935484,0,4154.83870968,0,4137.74193548,0,4173.5483871,0,4192.25806452,0,4277.74193548,0,4217.41935484,0,4182.58064516,0,4174.83870968,0,4368.06451613,0,4100.32258065,0,4110.96774194,0,4207.74193548,0,4165.48387097,0,0,0,?
2018-01-26 08:12:43.222000,4157.41935484,0,4153.22580645,0,4167.74193548,0,4206.4516129,0,4174.19354839,0,4261.61290323,0,4208.70967742,0,4169.67741935,0,4176.77419355,0,4364.51612903,0,4101.93548387,0,4145.16129032,0,4202.90322581,0,4182.58064516,0,0,0,?
2018-01-26 08:12:43.228000,4176.77419355,0,4147.74193548,0,4132.90322581,0,4177.09677419,0,4172.58064516,0,4264.83870968,0,4193.87096774,0,4166.77419355,0,4208.06451613,0,4399.67741935,0,4099.35483871,0,4125.16129032,0,4204.83870968,0,4165.80645161,0,0,0,?
2018-01-26 08:12:43.236000,4175.48387097,0,4145.16129032,0,4143.87096774,0,4164.19354839,0,4164.83870968,0,4257.74193548,0,4197.09677419,0,4167.09677419,0,4187.74193548,0,4375.48387097,0,4143.22580645,0,4123.87096774,0,4200.0,0,4161.61290323,0,0,0,?
2018-01-26 08:12:43.246000,4142.90322581,0,4151.61290323,0,4133.87096774,0,4179.67741935,0,4163.87096774,0,4242.58064516,0,4199.67741935,0,4210.32258065,0,4157.09677419,0,4362.25806452,0,4100.0,0,4136.4516129,0,4197.09677419,0,4167.74193548,0,0,0,?
2018-01-26 08:12:43.252000,4175.80645161,0,4157.09677419,0,4161.93548387,0,4208.70967742,0,4181.29032258,0,4259.35483871,0,4241.93548387,0,4168.70967742,0,4181.93548387,0,4407.41935484,0,4111.93548387,0,4102.25806452,0,4166.12903226,0,4166.12903226,0,0,0,?
2018-01-26 08:12:43.260000,4141.93548387,0,4169.35483871,0,4176.4516129,0,4210.96774194,0,4178.70967742,0,4274.51612903,0,4232.90322581,0,4179.03225806,0,4181.29032258,0,4393.22580645,0,4109.67741935,0,4101.61290323,0,4174.83870968,0,4175.16129032,0,0,0,?
2018-01-26 08:12:43.268000,4176.77419355,0,4171.93548387,0,4171.61290323,0,4209.67741935,0,4169.67741935,0,4261.29032258,0,4241.93548387,0,4184.19354839,0,4170.32258065,0,4442.58064516,0,4109.03225806,0,4099.35483871,0,4169.35483871,0,4162.90322581,0,0,0,?
2018-01-26 08:12:43.278000,4176.77419355,0,4165.48387097,0,4136.4516129,0,4193.22580645,0,4166.4516129,0,4255.16129032,0,4239.67741935,0,4178.06451613,0,4178.70967742,0,4454.83870968,0,4103.22580645,0,4138.38709677,0,4205.16129032,0,4208.70967742,0,0,0,?
2018-01-26 08:12:43.285000,4143.22580645,0,4166.4516129,0,4153.87096774,0,4188.38709677,0,4188.38709677,0,4274.83870968,0,4239.67741935,0,4175.16129032,0,4183.5483871,0,4431.61290323,0,4097.74193548,0,4137.74193548,0,4201.29032258,0,4165.48387097,0,0,0,?
2018-01-26 08:12:43.292000,4175.48387097,0,4171.61290323,0,4155.16129032,0,4207.09677419,0,4166.4516129,0,4284.19354839,0,4214.51612903,0,4184.19354839,0,4183.5483871,0,4458.70967742,0,4106.12903226,0,4104.51612903,0,4170.64516129,0,4208.06451613,0,0,0,?
2018-01-26 08:12:43.300000,4141.61290323,0,4175.48387097,0,4159.03225806,0,4190.0,0,4191.93548387,0,4258.38709677,0,4208.06451613,0,4181.29032258,0,4175.80645161,0,4435.48387097,0,4104.51612903,0,4136.77419355,0,4169.35483871,0,4162.58064516,0,0,0,?
2018-01-26 08:12:43.310000,4137.41935484,0,4179.03225806,0,4129.35483871,0,4182.58064516,0,4183.87096774,0,4250.64516129,0,4196.12903226,0,4193.22580645,0,4197.74193548,0,4388.38709677,0,4098.70967742,0,4122.58064516,0,4161.61290323,0,4211.29032258,0,0,0,?
