Timestamp,F3 Value,F3 Quality,FC5 Value,FC5 Quality,F7 Value,F7 Quality,T7 Value,T7 Quality,P7 Value,P7 Quality,O1 Value,O1 Quality,O2 Value,O2 Quality,P8 Value,P8 Quality,T8 Value,T8 Quality,F8 Value,F8 Quality,AF4 Value,AF4 Quality,FC6 Value,FC6 Quality,F4 Value,F4 Quality,AF3 Value,AF3 Quality,X Value,Y Value,Z Value
2018-01-26 08:52:46.592000,4162.58064516,0,4239.67741935,0,4101.93548387,0,4113.87096774,0,4127.74193548,0,4127.74193548,0,4163.87096774,0,4173.87096774,0,4180.96774194,0,4079.67741935,0,4139.35483871,0,4178.70967742,0,4186.4516129,0,4153.22580645,0,0,0,?
2018-01-26 08:52:46.611000,4156.77419355,0,4238.70967742,0,4102.90322581,0,4104.19354839,0,4125.80645161,0,4121.93548387,0,4164.83870968,0,4167.74193548,0,4174.51612903,0,4093.87096774,0,4140.0,0,4176.12903226,0,4194.51612903,0,4160.32258065,0,0,0,?
2018-01-26 08:52:46.615000,4130.96774194,0,4247.74193548,0,4106.77419355,0,4141.29032258,0,4115.80645161,0,4109.67741935,0,4160.0,0,4157.74193548,0,4165.16129032,0,4089.03225806,0,4135.16129032,0,4168.70967742,0,4188.06451613,0,4176.12903226,0,0,0,?
2018-01-26 08:52:46.620000,4150.96774194,0,4234.83870968,0,4092.90322581,0,4120.32258065,0,4121.93548387,0,4110.0,0,4151.29032258,0,4156.4516129,0,4170.64516129,0,4098.06451613,0,4138.06451613,0,4156.77419355,0,4182.90322581,0,4149.67741935,0,0,0,?
2018-01-26 08:52:46.635000,4133.22580645,0,4250.0,0,4073.5483871,0,4083.5483871,0,4113.87096774,0,4116.4516129,0,4132.90322581,0,4141.29032258,0,4133.5483871,0,4107.09677419,0,4135.16129032,0,4143.87096774,0,4187.41935484,0,4173.22580645,0,0,0,?
2018-01-26 08:52:46.652000,4162.90322581,0,4259.03225806,0,4095.48387097,0,4119.35483871,0,4121.93548387,0,4105.16129032,0,4135.16129032,0,4148.38709677,0,4137.09677419,0,4066.4516129,0,4140.96774194,0,4160.32258065,0,4194.51612903,0,4156.12903226,0,0,0,?
2018-01-26 08:52:46.653000,4162.90322581,0,4259.03225806,0,4095.48387097,0,4119.35483871,0,4121.93548387,0,4105.16129032,0,4135.16129032,0,4148.38709677,0,4137.09677419,0,4066.4516129,0,4140.96774194,0,4160.32258065,0,4194.51612903,0,4156.12903226,0,0,0,?
2018-01-26 08:52:46.685000,4160.32258065,0,4252.58064516,0,4110.96774194,0,4143.5483871,0,4126.12903226,0,4107.41935484,0,4135.16129032,0,4152.90322581,0,4142.25806452,0,4069.67741935,0,4139.35483871,0,4181.61290323,0,4192.25806452,0,4160.0,0,0,0,?
2018-01-26 08:52:46.705000,4133.5483871,0,4242.25806452,0,4072.25806452,0,4097.41935484,0,4117.41935484,0,4121.61290323,0,4120.32258065,0,4133.5483871,0,4133.87096774,0,4070.64516129,0,4136.4516129,0,4153.22580645,0,4187.09677419,0,4130.0,0,0,0,?
2018-01-26 08:52:46.707000,4160.96774194,0,4256.4516129,0,4082.90322581,0,4116.77419355,0,4107.74193548,0,4116.12903226,0,4110.96774194,0,4129.67741935,0,4125.48387097,0,4106.77419355,0,4130.32258065,0,4153.5483871,0,4174.83870968,0,4150.0,0,0,0,?
2018-01-26 08:52:46.711000,4167.74193548,0,4258.70967742,0,4114.51612903,0,4131.93548387,0,4104.19354839,0,4115.80645161,0,4104.83870968,0,4119.35483871,0,4100.64516129,0,4090.64516129,0,4123.87096774,0,4148.38709677,0,4174.83870968,0,4138.06451613,0,0,0,?
2018-01-26 08:52:46.714000,4157.74193548,0,4243.5483871,0,4092.25806452,0,4110.64516129,0,4146.4516129,0,4116.4516129,0,4111.29032258,0,4112.25806452,0,4123.5483871,0,4099.67741935,0,4125.48387097,0,4153.87096774,0,4186.77419355,0,4135.16129032,0,0,0,?
2018-01-26 08:52:46.721000,4131.93548387,0,4248.06451613,0,4092.58064516,0,4089.35483871,0,4140.0,0,4122.58064516,0,4107.74193548,0,4104.83870968,0,4136.4516129,0,4111.93548387,0,4120.64516129,0,4148.70967742,0,4185.48387097,0,4158.38709677,0,0,0,?
2018-01-26 08:52:46.722000,4141.93548387,0,4234.83870968,0,4064.83870968,0,4113.87096774,0,4110.32258065,0,4124.19354839,0,4108.70967742,0,4116.77419355,0,4128.38709677,0,4093.87096774,0,4124.19354839,0,4150.96774194,0,4182.58064516,0,4132.90322581,0,0,0,?
2018-01-26 08:52:46.728000,4165.80645161,0,4237.41935484,0,4071.61290323,0,4091.29032258,0,4105.80645161,0,4131.29032258,0,4111.93548387,0,4120.0,0,4130.0,0,4107.74193548,0,4125.48387097,0,4159.35483871,0,4181.29032258,0,4154.51612903,0,0,0,?
2018-01-26 08:52:46.731000,4167.41935484,0,4246.77419355,0,4079.35483871,0,4081.29032258,0,4107.74193548,0,4136.77419355,0,4126.12903226,0,4128.38709677,0,4168.06451613,0,4107.74193548,0,4128.06451613,0,4168.70967742,0,4183.22580645,0,4156.12903226,0,0,0,?
2018-01-26 08:52:46.737000,4147.74193548,0,4245.80645161,0,4087.09677419,0,4109.67741935,0,4116.77419355,0,4129.35483871,0,4137.41935484,0,4134.83870968,0,4146.12903226,0,4115.16129032,0,4129.03225806,0,4173.87096774,0,4185.16129032,0,4160.32258065,0,0,0,?
2018-01-26 08:52:46.739000,4179.03225806,0,4248.70967742,0,4072.90322581,0,4100.32258065,0,4110.0,0,4128.70967742,0,4126.12903226,0,4123.5483871,0,4136.12903226,0,4115.48387097,0,4129.35483871,0,4166.77419355,0,4183.87096774,0,4172.25806452,0,0,0,?
2018-01-26 08:52:46.752000,4150.32258065,0,4241.93548387,0,4069.67741935,0,4088.70967742,0,4115.48387097,0,4133.22580645,0,4120.32258065,0,4126.77419355,0,4170.96774194,0,4110.96774194,0,4142.58064516,0,4164.51612903,0,4182.58064516,0,4131.29032258,0,0,0,?
2018-01-26 08:52:46.755000,4178.38709677,0,4248.06451613,0,4113.22580645,0,4079.35483871,0,4101.61290323,0,4124.51612903,0,4110.0,0,4114.83870968,0,4117.41935484,0,4089.67741935,0,4131.61290323,0,4160.32258065,0,4176.12903226,0,4149.35483871,0,0,0,?
2018-01-26 08:52:46.769000,4129.03225806,0,4239.03225806,0,4102.58064516,0,4091.61290323,0,4101.61290323,0,4111.93548387,0,4100.64516129,0,4116.4516129,0,4127.09677419,0,4095.80645161,0,4116.77419355,0,4160.32258065,0,4180.96774194,0,4141.93548387,0,0,0,?
2018-01-26 08:52:46.771000,4139.35483871,0,4226.12903226,0,4099.03225806,0,4085.16129032,0,4108.06451613,0,4117.74193548,0,4143.5483871,0,4129.03225806,0,4146.77419355,0,4116.12903226,0,4125.48387097,0,4149.03225806,0,4185.16129032,0,4178.06451613,0,0,0,?
2018-01-26 08:52:46.782000,4174.19354839,0,4248.70967742,0,4099.03225806,0,4095.48387097,0,4138.38709677,0,4131.29032258,0,4140.96774194,0,4114.19354839,0,4103.87096774,0,4109.35483871,0,4125.80645161,0,4171.93548387,0,4174.51612903,0,4158.06451613,0,0,0,?
2018-01-26 08:52:46.786000,4150.32258065,0,4241.29032258,0,4107.41935484,0,4066.77419355,0,4101.29032258,0,4129.03225806,0,4110.0,0,4129.67741935,0,4104.83870968,0,4127.09677419,0,4123.22580645,0,4132.58064516,0,4179.35483871,0,4132.90322581,0,0,0,?
2018-01-26 08:52:46.802000,4160.96774194,0,4229.67741935,0,4105.80645161,0,4086.12903226,0,4111.93548387,0,4133.5483871,0,4109.35483871,0,4143.22580645,0,4117.74193548,0,4135.16129032,0,4124.83870968,0,4139.03225806,0,4183.22580645,0,4147.41935484,0,0,0,?
2018-01-26 08:52:46.804000,4176.77419355,0,4236.12903226,0,4105.48387097,0,4080.0,0,4107.09677419,0,4143.5483871,0,4102.25806452,0,4132.25806452,0,4142.25806452,0,4105.80645161,0,4133.87096774,0,4174.19354839,0,4181.29032258,0,4152.58064516,0,0,0,?
2018-01-26 08:52:46.814000,4155.16129032,0,4239.67741935,0,4065.48387097,0,4073.5483871,0,4109.67741935,0,4143.22580645,0,4109.35483871,0,4132.58064516,0,4119.03225806,0,4052.58064516,0,4137.09677419,0,4178.38709677,0,4188.06451613,0,4139.35483871,0,0,0,?
2018-01-26 08:52:46.818000,4132.58064516,0,4246.12903226,0,4109.03225806,0,4089.35483871,0,4102.25806452,0,4135.80645161,0,4102.58064516,0,4123.87096774,0,4124.19354839,0,4040.96774194,0,4120.32258065,0,4132.25806452,0,4171.61290323,0,4158.06451613,0,0,0,?
2018-01-26 08:52:46.832000,4151.29032258,0,4234.19354839,0,4105.16129032,0,4101.61290323,0,4109.67741935,0,4133.87096774,0,4103.87096774,0,4113.22580645,0,4121.93548387,0,4113.22580645,0,4116.77419355,0,4132.58064516,0,4153.87096774,0,4130.0,0,0,0,?
2018-01-26 08:52:46.836000,4154.83870968,0,4242.58064516,0,4071.93548387,0,4088.38709677,0,4114.51612903,0,4141.93548387,0,4107.41935484,0,4104.51612903,0,4121.61290323,0,4068.06451613,0,4121.93548387,0,4135.48387097,0,4168.38709677,0,4151.29032258,0,0,0,?
2018-01-26 08:52:46.846000,4172.25806452,0,4260.0,0,4091.61290323,0,4103.22580645,0,4112.90322581,0,4139.67741935,0,4101.93548387,0,4106.4516129,0,4115.80645161,0,4070.64516129,0,4125.48387097,0,4138.38709677,0,4185.80645161,0,4167.41935484,0,0,0,?
2018-01-26 08:52:46.849000,4145.16129032,0,4247.41935484,0,4101.93548387,0,4087.09677419,0,4105.16129032,0,4133.22580645,0,4146.12903226,0,4103.87096774,0,4101.93548387,0,4848.38709677,0,4131.61290323,0,4132.90322581,0,4185.80645161,0,4152.58064516,0,0,0,?
2018-01-26 08:52:46.864000,4174.51612903,0,4253.87096774,0,4110.32258065,0,4094.51612903,0,4134.83870968,0,4139.67741935,0,4138.70967742,0,4137.09677419,0,4087.09677419,0,5750.64516129,0,4130.0,0,4136.12903226,0,4179.03225806,0,4179.03225806,0,0,0,?
2018-01-26 08:52:46.869000,4158.38709677,0,4264.19354839,0,4107.74193548,0,4086.12903226,0,4097.09677419,0,4141.29032258,0,4097.41935484,0,4105.48387097,0,4104.51612903,0,5782.58064516,0,4137.41935484,0,4153.22580645,0,4180.0,0,4164.19354839,0,0,0,?
2018-01-26 08:52:46.878000,4170.32258065,0,4257.74193548,0,4066.4516129,0,4077.74193548,0,4145.16129032,0,4129.03225806,0,4141.93548387,0,4108.38709677,0,4143.87096774,0,5574.83870968,0,4135.80645161,0,4147.74193548,0,4177.41935484,0,4167.74193548,0,0,0,?
2018-01-26 08:52:46.881000,4134.51612903,0,4234.83870968,0,4087.74193548,0,4086.77419355,0,4127.41935484,0,4122.90322581,0,4132.90322581,0,4132.58064516,0,4110.64516129,0,5671.93548387,0,4128.06451613,0,4143.5483871,0,4170.64516129,0,4154.51612903,0,0,0,?
2018-01-26 08:52:46.896000,4150.64516129,0,4271.61290323,0,4112.58064516,0,4113.87096774,0,4135.80645161,0,4135.80645161,0,4146.4516129,0,4140.64516129,0,4097.74193548,0,5683.22580645,0,4142.25806452,0,4150.32258065,0,4172.25806452,0,4133.22580645,0,0,0,?
2018-01-26 08:52:46.899000,4143.22580645,0,4245.48387097,0,4071.93548387,0,4098.06451613,0,4138.70967742,0,4140.32258065,0,4100.96774194,0,4101.93548387,0,4131.61290323,0,5535.48387097,0,4146.77419355,0,4136.4516129,0,4169.35483871,0,4171.93548387,0,0,0,?
2018-01-26 08:52:46.910000,4129.67741935,0,4247.41935484,0,4068.38709677,0,4108.38709677,0,4100.96774194,0,4135.16129032,0,4105.48387097,0,4110.0,0,4109.67741935,0,5563.22580645,0,4137.41935484,0,4178.06451613,0,4175.80645161,0,4147.41935484,0,0,0,?
2018-01-26 08:52:46.913000,4164.51612903,0,4241.93548387,0,4076.12903226,0,4103.87096774,0,4102.58064516,0,4100.32258065,0,4100.96774194,0,4110.64516129,0,4126.4516129,0,5560.32258065,0,4129.67741935,0,4136.4516129,0,4180.64516129,0,4146.4516129,0,0,0,?
2018-01-26 08:52:46.930000,4134.51612903,0,4246.4516129,0,4071.29032258,0,4064.83870968,0,4146.77419355,0,4107.09677419,0,4141.93548387,0,4099.35483871,0,4110.64516129,0,5411.93548387,0,4130.64516129,0,4140.64516129,0,4169.67741935,0,4162.90322581,0,0,0,?
2018-01-26 08:52:46.935000,4167.09677419,0,4228.70967742,0,4114.51612903,0,4072.90322581,0,4107.09677419,0,4143.22580645,0,4097.09677419,0,4097.74193548,0,4100.32258065,0,5410.64516129,0,4142.25806452,0,4135.80645161,0,4170.64516129,0,4137.74193548,0,0,0,?
2018-01-26 08:52:46.943000,4153.22580645,0,4231.61290323,0,4069.03225806,0,4098.38709677,0,4146.77419355,0,4143.22580645,0,4098.38709677,0,4145.16129032,0,4103.87096774,0,5317.41935484,0,4132.58064516,0,4137.41935484,0,4167.09677419,0,4162.58064516,0,0,0,?
2018-01-26 08:52:46.945000,4178.38709677,0,4272.90322581,0,4064.51612903,0,4071.61290323,0,4144.83870968,0,4097.41935484,0,4103.22580645,0,4111.29032258,0,4116.12903226,0,4611.93548387,0,4120.0,0,4154.51612903,0,4163.5483871,0,4143.22580645,0,0,0,?
2018-01-26 08:52:46.958000,4161.93548387,0,4255.16129032,0,4095.16129032,0,4112.58064516,0,4101.29032258,0,4102.90322581,0,4106.12903226,0,4117.09677419,0,4134.51612903,0,3914.51612903,0,4121.93548387,0,4155.48387097,0,4168.38709677,0,4131.93548387,0,0,0,?
2018-01-26 08:52:46.962000,4141.61290323,0,4261.93548387,0,4094.19354839,0,4100.64516129,0,4104.83870968,0,4118.70967742,0,4103.5483871,0,4103.87096774,0,4111.93548387,0,3825.48387097,0,4125.16129032,0,4132.25806452,0,4163.5483871,0,4151.29032258,0,0,0,?
2018-01-26 08:52:46.972000,4157.09677419,0,4256.77419355,0,4089.35483871,0,4104.83870968,0,4109.67741935,0,4123.22580645,0,4107.74193548,0,4112.58064516,0,4108.70967742,0,3995.80645161,0,4128.70967742,0,4167.74193548,0,4163.22580645,0,4133.5483871,0,0,0,?
2018-01-26 08:52:46.973000,4139.03225806,0,4254.83870968,0,4048.70967742,0,4041.93548387,0,4132.58064516,0,4107.74193548,0,4139.67741935,0,4104.51612903,0,4096.12903226,0,3946.77419355,0,4119.03225806,0,4162.58064516,0,4168.38709677,0,4157.74193548,0,0,0,?
2018-01-26 08:52:46.990000,4130.96774194,0,4248.38709677,0,4045.48387097,0,4067.41935484,0,4120.32258065,0,4144.19354839,0,4125.16129032,0,4140.64516129,0,4094.51612903,0,3895.48387097,0,4120.32258065,0,4169.67741935,0,4169.03225806,0,4135.16129032,0,0,0,?
2018-01-26 08:52:46.991000,4155.80645161,0,4250.0,0,4066.12903226,0,4056.77419355,0,4130.96774194,0,4097.09677419,0,4132.25806452,0,4127.74193548,0,4084.51612903,0,3993.87096774,0,4129.67741935,0,4166.12903226,0,4154.83870968,0,4174.83870968,0,0,0,?
2018-01-26 08:52:47.004000,4141.29032258,0,4264.83870968,0,4047.74193548,0,4057.74193548,0,4128.06451613,0,4107.74193548,0,4130.32258065,0,4120.0,0,4067.09677419,0,3984.51612903,0,4122.90322581,0,4150.32258065,0,4145.80645161,0,4155.48387097,0,0,0,?
2018-01-26 08:52:47.007000,4161.29032258,0,4255.80645161,0,4041.61290323,0,4057.41935484,0,4141.61290323,0,4108.06451613,0,4137.09677419,0,4096.77419355,0,4115.16129032,0,3997.09677419,0,4130.64516129,0,4164.51612903,0,4162.25806452,0,4135.16129032,0,0,0,?
2018-01-26 08:52:47.021000,4129.67741935,0,4261.93548387,0,4055.80645161,0,4053.87096774,0,4141.61290323,0,4111.61290323,0,4145.48387097,0,4097.41935484,0,4114.83870968,0,4013.22580645,0,4132.58064516,0,4131.29032258,0,4170.96774194,0,4153.5483871,0,0,0,?
2018-01-26 08:52:47.022000,4176.77419355,0,4264.83870968,0,4053.5483871,0,4051.61290323,0,4137.09677419,0,4112.25806452,0,4105.80645161,0,4140.96774194,0,4077.74193548,0,3972.58064516,0,4129.35483871,0,4174.19354839,0,4167.09677419,0,4135.80645161,0,0,0,?
2018-01-26 08:52:47.036000,4152.25806452,0,4251.93548387,0,4035.80645161,0,4043.87096774,0,4142.25806452,0,4110.64516129,0,4107.74193548,0,4102.90322581,0,4088.06451613,0,3991.93548387,0,4131.93548387,0,4159.67741935,0,4159.35483871,0,4163.5483871,0,0,0,?
2018-01-26 08:52:47.038000,4148.38709677,0,4256.12903226,0,4075.48387097,0,4033.5483871,0,4142.25806452,0,4123.5483871,0,4145.48387097,0,4098.38709677,0,4095.80645161,0,3981.61290323,0,4119.35483871,0,4160.96774194,0,4153.87096774,0,4136.77419355,0,0,0,?
2018-01-26 08:52:47.052000,4167.41935484,0,4250.64516129,0,4043.5483871,0,4064.83870968,0,4104.51612903,0,4130.0,0,4098.70967742,0,4098.38709677,0,4106.12903226,0,4000.96774194,0,4112.58064516,0,4168.70967742,0,4160.96774194,0,4172.25806452,0,0,0,?
2018-01-26 08:52:47.055000,4168.38709677,0,4261.29032258,0,4058.06451613,0,4064.51612903,0,4141.61290323,0,4123.5483871,0,4142.58064516,0,4130.64516129,0,4084.19354839,0,3993.22580645,0,4117.09677419,0,4153.22580645,0,4157.74193548,0,4148.70967742,0,0,0,?
2018-01-26 08:52:47.100000,4130.0,0,4268.70967742,0,4064.19354839,0,4063.87096774,0,4133.5483871,0,4110.32258065,0,4138.70967742,0,4120.0,0,4066.4516129,0,4012.58064516,0,4123.87096774,0,4149.03225806,0,4154.19354839,0,4148.70967742,0,0,0,?
2018-01-26 08:52:47.106000,4168.06451613,0,4255.16129032,0,4067.09677419,0,4074.19354839,0,4136.4516129,0,4105.80645161,0,4142.90322581,0,4126.77419355,0,4076.12903226,0,4013.5483871,0,4117.09677419,0,4159.67741935,0,4154.83870968,0,4132.25806452,0,0,0,?
2018-01-26 08:52:47.113000,4152.58064516,0,4262.58064516,0,4052.58064516,0,4074.51612903,0,4123.22580645,0,4120.96774194,0,4133.22580645,0,4115.48387097,0,4090.32258065,0,3974.19354839,0,4106.4516129,0,4149.67741935,0,4154.19354839,0,4155.48387097,0,0,0,?
2018-01-26 08:52:47.121000,4167.41935484,0,4264.51612903,0,4050.96774194,0,4063.5483871,0,4142.58064516,0,4123.87096774,0,4139.03225806,0,4128.38709677,0,4080.96774194,0,3994.19354839,0,4126.12903226,0,4150.96774194,0,4162.25806452,0,4132.58064516,0,0,0,?
2018-01-26 08:52:47.141000,4169.03225806,0,4267.74193548,0,4052.90322581,0,4046.77419355,0,4137.09677419,0,4116.4516129,0,4146.4516129,0,4139.67741935,0,4105.16129032,0,4000.96774194,0,4130.32258065,0,4158.70967742,0,4156.12903226,0,4143.5483871,0,0,0,?
2018-01-26 08:52:47.143000,4178.38709677,0,4271.61290323,0,4053.22580645,0,4066.4516129,0,4117.09677419,0,4111.61290323,0,4138.06451613,0,4140.64516129,0,4103.5483871,0,3996.4516129,0,4117.74193548,0,4150.96774194,0,4149.35483871,0,4142.58064516,0,0,0,?
2018-01-26 08:52:47.145000,4178.38709677,0,4271.61290323,0,4053.22580645,0,4066.4516129,0,4117.09677419,0,4111.61290323,0,4138.06451613,0,4140.64516129,0,4103.5483871,0,3996.4516129,0,4117.74193548,0,4150.96774194,0,4149.35483871,0,4142.58064516,0,0,0,?
2018-01-26 08:52:47.151000,4145.80645161,0,4267.41935484,0,4055.16129032,0,4060.0,0,4130.32258065,0,4114.19354839,0,4132.58064516,0,4143.87096774,0,4122.58064516,0,3998.70967742,0,4122.25806452,0,4143.5483871,0,4148.38709677,0,4130.0,0,0,0,?
2018-01-26 08:52:47.153000,4136.77419355,0,4226.4516129,0,4044.51612903,0,4032.25806452,0,4124.51612903,0,4119.67741935,0,4127.09677419,0,4127.09677419,0,4100.96774194,0,3990.96774194,0,4118.70967742,0,4139.67741935,0,4140.96774194,0,4163.5483871,0,0,0,?
2018-01-26 08:52:47.167000,4165.48387097,0,4260.96774194,0,4047.74193548,0,4076.77419355,0,4122.90322581,0,4121.29032258,0,4134.51612903,0,4131.93548387,0,4083.22580645,0,3995.80645161,0,4118.06451613,0,4147.74193548,0,4141.93548387,0,4140.64516129,0,0,0,?
2018-01-26 08:52:47.169000,4157.09677419,0,4244.51612903,0,4046.12903226,0,4072.25806452,0,4101.93548387,0,4138.06451613,0,4146.4516129,0,4112.25806452,0,4076.4516129,0,3996.12903226,0,4115.48387097,0,4137.74193548,0,4142.58064516,0,4176.77419355,0,0,0,?
2018-01-26 08:52:47.186000,4132.90322581,0,4248.70967742,0,4043.22580645,0,4048.38709677,0,4116.12903226,0,4158.06451613,0,4146.12903226,0,4121.61290323,0,4097.41935484,0,3995.80645161,0,4105.48387097,0,4128.06451613,0,4137.09677419,0,4150.96774194,0,0,0,?
2018-01-26 08:52:47.218000,4157.74193548,0,4248.70967742,0,4052.25806452,0,4074.19354839,0,4133.5483871,0,4168.06451613,0,4114.19354839,0,4146.4516129,0,4106.77419355,0,4012.25806452,0,4123.22580645,0,4133.87096774,0,4148.70967742,0,4130.32258065,0,0,0,?
2018-01-26 08:52:47.222000,4140.96774194,0,4267.74193548,0,4058.70967742,0,4067.09677419,0,4112.58064516,0,4170.0,0,4121.29032258,0,4142.58064516,0,4115.48387097,0,4021.29032258,0,4125.48387097,0,4143.22580645,0,4151.61290323,0,4157.74193548,0,0,0,?
2018-01-26 08:52:47.240000,4174.83870968,0,4261.61290323,0,4085.80645161,0,4060.0,0,4109.03225806,0,4166.12903226,0,4113.5483871,0,4146.12903226,0,4094.51612903,0,4033.87096774,0,4130.64516129,0,4149.35483871,0,4146.4516129,0,4146.77419355,0,0,0,?
2018-01-26 08:52:47.242000,4174.83870968,0,4261.61290323,0,4085.80645161,0,4060.0,0,4109.03225806,0,4166.12903226,0,4113.5483871,0,4146.12903226,0,4094.51612903,0,4033.87096774,0,4130.64516129,0,4149.35483871,0,4146.4516129,0,4146.77419355,0,0,0,?
2018-01-26 08:52:47.244000,4161.93548387,0,4248.70967742,0,4102.90322581,0,4082.90322581,0,4119.35483871,0,4160.64516129,0,4109.67741935,0,4098.06451613,0,4117.74193548,0,4041.93548387,0,4139.67741935,0,4146.77419355,0,4144.19354839,0,4145.16129032,0,0,0,?
2018-01-26 08:52:47.272000,4141.29032258,0,4256.12903226,0,4088.70967742,0,4072.25806452,0,4126.4516129,0,4163.87096774,0,4120.0,0,4137.74193548,0,4133.22580645,0,4040.0,0,4132.58064516,0,4140.32258065,0,4146.12903226,0,4157.09677419,0,0,0,?
2018-01-26 08:52:47.277000,4158.70967742,0,4249.67741935,0,4090.0,0,4086.77419355,0,4132.90322581,0,4163.22580645,0,4126.4516129,0,4136.4516129,0,4123.5483871,0,4000.0,0,4131.29032258,0,4141.61290323,0,4152.25806452,0,4130.32258065,0,0,0,?
2018-01-26 08:52:47.292000,4177.41935484,0,4260.96774194,0,4085.16129032,0,4084.83870968,0,4111.61290323,0,4164.83870968,0,4101.61290323,0,4124.19354839,0,4090.64516129,0,4038.06451613,0,4129.35483871,0,4135.16129032,0,4147.41935484,0,4161.93548387,0,0,0,?
2018-01-26 08:52:47.294000,4165.48387097,0,4265.80645161,0,4076.4516129,0,4088.38709677,0,4128.38709677,0,4168.38709677,0,4107.41935484,0,4130.96774194,0,4108.70967742,0,4033.87096774,0,4128.70967742,0,4137.09677419,0,4144.51612903,0,4152.58064516,0,0,0,?
2018-01-26 08:52:47.297000,4130.0,0,4251.61290323,0,4087.74193548,0,4071.61290323,0,4130.64516129,0,4166.4516129,0,4117.09677419,0,4129.35483871,0,4117.09677419,0,4028.06451613,0,4133.22580645,0,4129.03225806,0,4151.61290323,0,4153.22580645,0,0,0,?
2018-01-26 08:52:47.299000,4162.58064516,0,4243.22580645,0,4102.25806452,0,4095.80645161,0,4124.51612903,0,4159.03225806,0,4121.61290323,0,4139.67741935,0,4120.96774194,0,4037.41935484,0,4137.41935484,0,4133.22580645,0,4152.25806452,0,4154.83870968,0,0,0,?
2018-01-26 08:52:47.305000,4159.35483871,0,4247.41935484,0,4091.93548387,0,4047.74193548,0,4136.12903226,0,4172.25806452,0,4127.09677419,0,4102.58064516,0,4130.64516129,0,4028.38709677,0,4136.4516129,0,4137.74193548,0,4143.87096774,0,4132.90322581,0,0,0,?
2018-01-26 08:52:47.306000,4159.35483871,0,4247.41935484,0,4077.74193548,0,4047.74193548,0,4136.12903226,0,4172.25806452,0,4127.09677419,0,4102.58064516,0,4130.64516129,0,4041.29032258,0,4144.51612903,0,4147.09677419,0,4143.87096774,0,4132.90322581,0,0,0,?
2018-01-26 08:52:47.309000,4178.06451613,0,4244.83870968,0,4073.87096774,0,4070.32258065,0,4133.5483871,0,4137.09677419,0,4122.25806452,0,4145.80645161,0,4114.19354839,0,4038.38709677,0,4136.4516129,0,4140.64516129,0,4140.0,0,4148.70967742,0,0,0,?
2018-01-26 08:52:47.313000,4133.87096774,0,4246.77419355,0,4084.19354839,0,4077.09677419,0,4135.80645161,0,4140.32258065,0,4136.77419355,0,4099.67741935,0,4086.12903226,0,4041.93548387,0,4132.90322581,0,4140.96774194,0,4140.32258065,0,4154.51612903,0,0,0,?
2018-01-26 08:52:47.321000,4158.38709677,0,4241.29032258,0,4081.61290323,0,4070.0,0,4147.09677419,0,4133.87096774,0,4146.4516129,0,4111.29032258,0,4086.77419355,0,4051.29032258,0,4143.87096774,0,4144.51612903,0,4144.19354839,0,4157.41935484,0,0,0,?
2018-01-26 08:52:47.328000,4130.64516129,0,4234.51612903,0,4057.74193548,0,4002.58064516,0,4129.35483871,0,4146.12903226,0,4113.87096774,0,4132.58064516,0,4067.09677419,0,4036.77419355,0,4137.09677419,0,4133.87096774,0,4140.32258065,0,4174.83870968,0,0,0,?
2018-01-26 08:52:47.343000,4151.61290323,0,4218.38709677,0,4053.5483871,0,4061.29032258,0,4133.22580645,0,4158.06451613,0,4111.93548387,0,4130.0,0,4086.4516129,0,4052.58064516,0,4136.12903226,0,4136.77419355,0,4142.25806452,0,4132.25806452,0,0,0,?
2018-01-26 08:52:47.351000,4178.70967742,0,4238.38709677,0,4070.32258065,0,4061.61290323,0,4138.06451613,0,4154.83870968,0,4123.87096774,0,4137.74193548,0,4093.22580645,0,4061.61290323,0,4137.74193548,0,4136.77419355,0,4140.32258065,0,4155.80645161,0,0,0,?
2018-01-26 08:52:47.368000,4137.09677419,0,4252.25806452,0,4093.22580645,0,4055.48387097,0,4136.77419355,0,4143.5483871,0,4118.06451613,0,4130.64516129,0,4073.22580645,0,4050.0,0,4132.90322581,0,4134.51612903,0,4139.03225806,0,4173.5483871,0,0,0,?
2018-01-26 08:52:47.369000,4146.4516129,0,4238.38709677,0,4100.0,0,4080.0,0,4138.70967742,0,4139.03225806,0,4120.96774194,0,4133.5483871,0,4074.19354839,0,4058.06451613,0,4138.06451613,0,4137.74193548,0,4145.48387097,0,4155.48387097,0,0,0,?
2018-01-26 08:52:47.373000,4162.58064516,0,4270.32258065,0,4105.80645161,0,4078.70967742,0,4158.38709677,0,4151.29032258,0,4118.70967742,0,4099.03225806,0,4077.74193548,0,4077.09677419,0,4152.25806452,0,4144.83870968,0,4152.58064516,0,4153.5483871,0,0,0,?
2018-01-26 08:52:47.374000,4162.58064516,0,4270.32258065,0,4105.80645161,0,4078.70967742,0,4158.38709677,0,4151.29032258,0,4118.70967742,0,4099.03225806,0,4077.74193548,0,4077.09677419,0,4152.25806452,0,4144.83870968,0,4152.58064516,0,4153.5483871,0,0,0,?
2018-01-26 08:52:47.388000,4129.67741935,0,4230.32258065,0,4067.41935484,0,4100.0,0,4153.5483871,0,4157.09677419,0,4119.35483871,0,4103.22580645,0,4099.35483871,0,4034.19354839,0,4150.0,0,4144.51612903,0,4152.58064516,0,4181.29032258,0,0,0,?
2018-01-26 08:52:47.389000,4144.51612903,0,4234.83870968,0,4105.48387097,0,4074.19354839,0,4134.83870968,0,4151.29032258,0,4124.83870968,0,4098.70967742,0,4089.03225806,0,4039.35483871,0,4145.48387097,0,4152.58064516,0,4146.12903226,0,4179.67741935,0,0,0,?
2018-01-26 08:52:47.408000,4150.32258065,0,4226.12903226,0,4088.38709677,0,4078.38709677,0,4129.67741935,0,4136.12903226,0,4120.96774194,0,4141.29032258,0,4075.48387097,0,4036.77419355,0,4141.93548387,0,4155.16129032,0,4148.06451613,0,4144.83870968,0,0,0,?
2018-01-26 08:52:47.416000,4130.32258065,0,4248.70967742,0,4089.67741935,0,4063.22580645,0,4114.51612903,0,4140.64516129,0,4115.48387097,0,4126.77419355,0,4077.74193548,0,4077.09677419,0,4130.96774194,0,4142.90322581,0,4146.4516129,0,4166.77419355,0,0,0,?
2018-01-26 08:52:47.429000,4164.19354839,0,4250.96774194,0,4112.25806452,0,4083.5483871,0,4128.38709677,0,4150.0,0,4133.87096774,0,4097.74193548,0,4110.0,0,4047.74193548,0,4143.22580645,0,4145.16129032,0,4152.90322581,0,4152.58064516,0,0,0,?
2018-01-26 08:52:47.432000,4167.09677419,0,4232.90322581,0,4109.67741935,0,4089.67741935,0,4135.80645161,0,4151.61290323,0,4132.90322581,0,4107.41935484,0,4087.09677419,0,4068.38709677,0,4150.64516129,0,4144.83870968,0,4155.48387097,0,4173.5483871,0,0,0,?
2018-01-26 08:52:47.449000,4135.80645161,0,4274.19354839,0,4098.70967742,0,4071.29032258,0,4131.29032258,0,4154.19354839,0,4127.74193548,0,4145.48387097,0,4065.80645161,0,4065.48387097,0,4142.25806452,0,4138.70967742,0,4149.67741935,0,4182.58064516,0,0,0,?
2018-01-26 08:52:47.452000,4152.25806452,0,4263.5483871,0,4066.77419355,0,4081.61290323,0,4148.38709677,0,4158.70967742,0,4145.16129032,0,4108.06451613,0,4117.41935484,0,4070.96774194,0,4149.35483871,0,4144.51612903,0,4155.80645161,0,4152.90322581,0,0,0,?
2018-01-26 08:52:47.460000,4137.09677419,0,4270.96774194,0,4066.77419355,0,4078.70967742,0,4142.90322581,0,4155.80645161,0,4142.90322581,0,4107.41935484,0,4112.58064516,0,4076.4516129,0,4147.09677419,0,4150.96774194,0,4154.51612903,0,4181.93548387,0,0,0,?
2018-01-26 08:52:47.462000,4170.0,0,4264.51612903,0,4102.90322581,0,4072.25806452,0,4131.93548387,0,4150.32258065,0,4137.09677419,0,4104.19354839,0,4082.25806452,0,4090.64516129,0,4144.19354839,0,4161.29032258,0,4152.58064516,0,4163.22580645,0,0,0,?
2018-01-26 08:52:47.479000,4160.64516129,0,4260.32258065,0,4089.67741935,0,4065.16129032,0,4116.77419355,0,4154.19354839,0,4130.64516129,0,4101.29032258,0,4098.06451613,0,4083.22580645,0,4144.19354839,0,4157.41935484,0,4157.41935484,0,4166.4516129,0,0,0,?
2018-01-26 08:52:47.481000,4132.58064516,0,4274.19354839,0,4080.64516129,0,4069.03225806,0,4113.87096774,0,4156.77419355,0,4118.38709677,0,4141.61290323,0,4102.90322581,0,4061.29032258,0,4146.12903226,0,4135.16129032,0,4155.48387097,0,4181.29032258,0,0,0,?
2018-01-26 08:52:47.492000,4146.77419355,0,4273.87096774,0,4092.58064516,0,4073.5483871,0,4125.80645161,0,4150.96774194,0,4120.96774194,0,4138.70967742,0,4109.35483871,0,4076.77419355,0,4155.16129032,0,4130.96774194,0,4151.93548387,0,4152.90322581,0,0,0,?
2018-01-26 08:52:47.495000,4172.90322581,0,4269.03225806,0,4097.09677419,0,4048.70967742,0,4105.80645161,0,4150.96774194,0,4113.5483871,0,4120.96774194,0,4067.41935484,0,4085.80645161,0,4139.67741935,0,4131.29032258,0,4147.74193548,0,4171.93548387,0,0,0,?
2018-01-26 08:52:47.510000,4161.61290323,0,4252.90322581,0,4101.29032258,0,4061.61290323,0,4110.96774194,0,4148.06451613,0,4114.19354839,0,4127.74193548,0,4090.64516129,0,4095.48387097,0,4134.51612903,0,4130.96774194,0,4151.29032258,0,4157.41935484,0,0,0,?
2018-01-26 08:52:47.514000,4153.87096774,0,4255.80645161,0,4104.83870968,0,4060.64516129,0,4121.93548387,0,4146.12903226,0,4126.77419355,0,4137.74193548,0,4091.29032258,0,4102.90322581,0,4147.41935484,0,4133.5483871,0,4154.51612903,0,4160.96774194,0,0,0,?
2018-01-26 08:52:47.524000,4132.58064516,0,4267.09677419,0,4090.64516129,0,4032.90322581,0,4102.25806452,0,4149.03225806,0,4125.16129032,0,4121.61290323,0,4086.12903226,0,4094.83870968,0,4146.77419355,0,4131.93548387,0,4152.25806452,0,4172.90322581,0,0,0,?
2018-01-26 08:52:47.527000,4152.25806452,0,4237.74193548,0,4084.51612903,0,4058.06451613,0,4146.12903226,0,4145.80645161,0,4121.61290323,0,4117.74193548,0,4071.29032258,0,4100.96774194,0,4147.74193548,0,4129.67741935,0,4153.87096774,0,4148.06451613,0,0,0,?
2018-01-26 08:52:47.540000,4132.25806452,0,4235.48387097,0,4097.41935484,0,4071.61290323,0,4097.74193548,0,4150.64516129,0,4113.87096774,0,4117.74193548,0,4098.38709677,0,4099.03225806,0,4148.38709677,0,4132.90322581,0,4154.51612903,0,4180.0,0,0,0,?
2018-01-26 08:52:47.543000,4175.80645161,0,4245.80645161,0,4104.83870968,0,4067.09677419,0,4110.0,0,4152.58064516,0,4126.12903226,0,4132.58064516,0,4095.16129032,0,4105.16129032,0,4150.64516129,0,4150.64516129,0,4158.70967742,0,4170.96774194,0,0,0,?
2018-01-26 08:52:47.555000,4157.09677419,0,4239.03225806,0,4093.22580645,0,4059.03225806,0,4111.29032258,0,4151.93548387,0,4134.19354839,0,4136.12903226,0,4101.29032258,0,4068.38709677,0,4150.0,0,4153.5483871,0,4156.4516129,0,4158.70967742,0,0,0,?
2018-01-26 08:52:47.556000,4137.09677419,0,4245.48387097,0,4101.93548387,0,4057.74193548,0,4113.87096774,0,4154.51612903,0,4117.09677419,0,4120.0,0,4049.03225806,0,4112.25806452,0,4149.67741935,0,4133.87096774,0,4150.96774194,0,4168.06451613,0,0,0,?
2018-01-26 08:52:47.573000,4150.96774194,0,4239.67741935,0,4071.93548387,0,4063.87096774,0,4132.58064516,0,4157.41935484,0,4125.48387097,0,4129.35483871,0,4040.0,0,4110.32258065,0,4154.19354839,0,4131.29032258,0,4156.12903226,0,4145.80645161,0,0,0,?
2018-01-26 08:52:47.574000,4169.35483871,0,4228.70967742,0,4100.64516129,0,4067.09677419,0,4110.32258065,0,4166.77419355,0,4133.22580645,0,4125.16129032,0,4040.32258065,0,4104.51612903,0,4140.32258065,0,4134.83870968,0,4153.5483871,0,4181.93548387,0,0,0,?
2018-01-26 08:52:47.588000,4171.29032258,0,4212.58064516,0,4080.64516129,0,4068.70967742,0,4138.06451613,0,4159.03225806,0,4121.61290323,0,4112.25806452,0,4034.51612903,0,4103.5483871,0,4136.4516129,0,4134.83870968,0,4152.90322581,0,4171.61290323,0,0,0,?
2018-01-26 08:52:47.591000,4149.67741935,0,4211.61290323,0,4089.67741935,0,4064.83870968,0,4099.03225806,0,4146.4516129,0,4110.32258065,0,4100.64516129,0,4078.70967742,0,4101.93548387,0,4145.80645161,0,4126.77419355,0,4154.19354839,0,4147.74193548,0,0,0,?
2018-01-26 08:52:47.604000,4134.51612903,0,4225.16129032,0,4099.03225806,0,4044.51612903,0,4103.87096774,0,4154.19354839,0,4108.38709677,0,4087.41935484,0,4047.41935484,0,4085.48387097,0,4146.12903226,0,4120.0,0,4148.70967742,0,4169.35483871,0,0,0,?
2018-01-26 08:52:47.605000,4155.80645161,0,4216.12903226,0,4105.48387097,0,4080.64516129,0,4103.5483871,0,4162.90322581,0,4121.93548387,0,4104.83870968,0,4053.87096774,0,4095.80645161,0,4150.96774194,0,4133.22580645,0,4151.61290323,0,4156.12903226,0,0,0,?
2018-01-26 08:52:47.619000,4174.19354839,0,4223.5483871,0,4094.19354839,0,4070.32258065,0,4132.90322581,0,4158.70967742,0,4112.58064516,0,4106.77419355,0,4031.29032258,0,4109.67741935,0,4150.96774194,0,4132.58064516,0,4152.25806452,0,4181.29032258,0,0,0,?
2018-01-26 08:52:47.621000,4178.70967742,0,4215.80645161,0,4091.93548387,0,4055.48387097,0,4129.35483871,0,4152.90322581,0,4106.12903226,0,4101.29032258,0,4007.74193548,0,4070.64516129,0,4158.70967742,0,4126.77419355,0,4153.87096774,0,4174.19354839,0,0,0,?
2018-01-26 08:52:47.642000,4148.38709677,0,4205.48387097,0,4068.06451613,0,4069.03225806,0,4101.93548387,0,4159.35483871,0,4121.93548387,0,4116.12903226,0,4056.12903226,0,4090.96774194,0,4174.19354839,0,4131.93548387,0,4157.74193548,0,4157.74193548,0,0,0,?
2018-01-26 08:52:47.646000,4133.87096774,0,4239.67741935,0,4068.38709677,0,4079.35483871,0,4142.90322581,0,4162.58064516,0,4129.03225806,0,4117.41935484,0,4065.48387097,0,4083.5483871,0,4164.19354839,0,4129.35483871,0,4152.25806452,0,4184.19354839,0,0,0,?
2018-01-26 08:52:47.673000,4156.4516129,0,4233.87096774,0,4107.09677419,0,4046.12903226,0,4136.4516129,0,4163.22580645,0,4132.90322581,0,4121.93548387,0,4049.35483871,0,4082.25806452,0,4158.70967742,0,4130.96774194,0,4154.51612903,0,4158.70967742,0,0,0,?
2018-01-26 08:52:47.673000,4165.48387097,0,4219.03225806,0,4114.19354839,0,4035.48387097,0,4137.09677419,0,4174.19354839,0,4120.0,0,4119.03225806,0,4057.09677419,0,4090.32258065,0,4162.25806452,0,4131.61290323,0,4157.74193548,0,4177.74193548,0,0,0,?
2018-01-26 08:52:47.675000,4176.77419355,0,4231.93548387,0,4072.90322581,0,4036.12903226,0,4145.16129032,0,4177.41935484,0,4124.83870968,0,4112.25806452,0,4067.09677419,0,4094.19354839,0,4166.4516129,0,4133.22580645,0,4158.38709677,0,4180.0,0,0,0,?
2018-01-26 08:52:47.675000,4153.5483871,0,4229.03225806,0,4068.06451613,0,4039.67741935,0,4101.93548387,0,4177.74193548,0,4141.29032258,0,4109.67741935,0,4023.22580645,0,4087.41935484,0,4170.32258065,0,4126.77419355,0,4166.4516129,0,4153.87096774,0,0,0,?
2018-01-26 08:52:47.681000,4150.0,0,4230.96774194,0,4104.51612903,0,4034.51612903,0,4128.38709677,0,4172.58064516,0,4129.67741935,0,4093.22580645,0,4009.03225806,0,4068.38709677,0,4153.5483871,0,4117.74193548,0,4162.25806452,0,4176.77419355,0,0,0,?
2018-01-26 08:52:47.683000,4169.67741935,0,4224.83870968,0,4109.67741935,0,4043.5483871,0,4127.09677419,0,4158.38709677,0,4132.25806452,0,4098.06451613,0,4044.51612903,0,4091.29032258,0,4153.22580645,0,4123.87096774,0,4156.12903226,0,4155.80645161,0,0,0,?
2018-01-26 08:52:47.697000,4157.09677419,0,4223.22580645,0,4065.16129032,0,4043.5483871,0,4134.51612903,0,4166.77419355,0,4142.90322581,0,4100.0,0,4008.70967742,0,4114.19354839,0,4162.58064516,0,4123.22580645,0,4155.48387097,0,4165.16129032,0,0,0,?
2018-01-26 08:52:47.702000,4134.19354839,0,4226.77419355,0,4067.74193548,0,4044.51612903,0,4146.12903226,0,4185.80645161,0,4145.48387097,0,4104.19354839,0,4045.48387097,0,4107.09677419,0,4168.38709677,0,4124.51612903,0,4157.41935484,0,4176.77419355,0,0,0,?
2018-01-26 08:52:47.712000,4165.80645161,0,4209.03225806,0,4110.96774194,0,4070.32258065,0,4109.67741935,0,4185.48387097,0,4146.77419355,0,4126.77419355,0,4037.41935484,0,4104.51612903,0,4177.41935484,0,4127.41935484,0,4163.22580645,0,4156.12903226,0,0,0,?
2018-01-26 08:52:47.725000,4138.38709677,0,4200.64516129,0,4091.93548387,0,4054.51612903,0,4140.0,0,4190.0,0,4146.4516129,0,4116.77419355,0,4030.0,0,4093.87096774,0,4172.90322581,0,4122.90322581,0,4155.48387097,0,4180.0,0,0,0,?
2018-01-26 08:52:47.746000,4157.74193548,0,4198.38709677,0,4113.22580645,0,4065.16129032,0,4101.93548387,0,4191.61290323,0,4152.58064516,0,4115.80645161,0,4003.5483871,0,4094.83870968,0,4173.5483871,0,4126.4516129,0,4162.90322581,0,4166.77419355,0,0,0,?
2018-01-26 08:52:47.746000,4158.06451613,0,4208.06451613,0,4092.90322581,0,4052.25806452,0,4114.83870968,0,4180.32258065,0,4144.51612903,0,4125.16129032,0,4050.0,0,4099.67741935,0,4171.29032258,0,4123.87096774,0,4172.90322581,0,4175.80645161,0,0,0,?
2018-01-26 08:52:47.749000,4158.06451613,0,4208.06451613,0,4092.90322581,0,4052.25806452,0,4114.83870968,0,4180.32258065,0,4144.51612903,0,4125.16129032,0,4050.0,0,4099.67741935,0,4171.29032258,0,4123.87096774,0,4172.90322581,0,4175.80645161,0,0,0,?
2018-01-26 08:52:47.754000,4137.74193548,0,4203.5483871,0,4080.96774194,0,4069.67741935,0,4100.0,0,4178.38709677,0,4134.19354839,0,4113.5483871,0,4047.41935484,0,4096.77419355,0,4170.96774194,0,4120.32258065,0,4161.93548387,0,4181.61290323,0,0,0,?
2018-01-26 08:52:47.760000,4154.51612903,0,4225.48387097,0,4067.74193548,0,4058.38709677,0,4144.83870968,0,4179.03225806,0,4136.12903226,0,4104.19354839,0,4017.41935484,0,4100.96774194,0,4178.38709677,0,4125.80645161,0,4155.48387097,0,4159.03225806,0,0,0,?
2018-01-26 08:52:47.768000,4134.19354839,0,4231.93548387,0,4066.12903226,0,4040.0,0,4134.19354839,0,4176.77419355,0,4129.67741935,0,4090.64516129,0,4017.74193548,0,4086.4516129,0,4171.29032258,0,4120.96774194,0,4155.48387097,0,4191.61290323,0,0,0,?
2018-01-26 08:52:47.776000,4172.90322581,0,4235.48387097,0,4081.29032258,0,4050.0,0,4102.90322581,0,4182.25806452,0,4139.03225806,0,4102.58064516,0,4012.25806452,0,4079.03225806,0,4174.51612903,0,4116.77419355,0,4161.93548387,0,4175.16129032,0,0,0,?
2018-01-26 08:52:47.786000,4162.25806452,0,4230.32258065,0,4108.70967742,0,4054.19354839,0,4116.4516129,0,4193.5483871,0,4149.35483871,0,4116.4516129,0,4040.0,0,4075.48387097,0,4179.03225806,0,4119.67741935,0,4162.58064516,0,4167.09677419,0,0,0,?
2018-01-26 08:52:47.792000,4134.19354839,0,4228.70967742,0,4112.58064516,0,4033.22580645,0,4109.35483871,0,4195.48387097,0,4143.87096774,0,4106.12903226,0,3986.4516129,0,4068.70967742,0,4173.5483871,0,4119.03225806,0,4159.35483871,0,4183.22580645,0,0,0,?
2018-01-26 08:52:47.799000,4156.4516129,0,4214.51612903,0,4108.06451613,0,4067.09677419,0,4121.61290323,0,4197.09677419,0,4156.4516129,0,4109.35483871,0,4000.0,0,4082.25806452,0,4178.06451613,0,4119.67741935,0,4162.58064516,0,4172.58064516,0,0,0,?
2018-01-26 08:52:47.808000,4133.87096774,0,4224.19354839,0,4110.96774194,0,4098.38709677,0,4130.96774194,0,4204.19354839,0,4161.93548387,0,4112.58064516,0,4021.61290323,0,4082.25806452,0,4129.67741935,0,4119.67741935,0,4155.80645161,0,4194.51612903,0,0,0,?
2018-01-26 08:52:47.815000,4170.96774194,0,4211.93548387,0,4111.29032258,0,4095.48387097,0,4145.16129032,0,4200.64516129,0,4154.19354839,0,4111.61290323,0,4006.4516129,0,4078.06451613,0,4129.35483871,0,4127.09677419,0,4161.93548387,0,4167.74193548,0,0,0,?
2018-01-26 08:52:47.823000,4165.48387097,0,4192.58064516,0,4103.87096774,0,4067.74193548,0,4139.03225806,0,4202.25806452,0,4144.83870968,0,4096.12903226,0,4005.16129032,0,4070.64516129,0,4176.12903226,0,4126.4516129,0,4173.87096774,0,4166.12903226,0,0,0,?
2018-01-26 08:52:47.831000,4147.41935484,0,4212.58064516,0,4111.29032258,0,4071.61290323,0,4138.70967742,0,4206.12903226,0,4144.83870968,0,4094.19354839,0,4002.25806452,0,4109.67741935,0,4174.51612903,0,4119.03225806,0,4168.70967742,0,4185.80645161,0,0,0,?
2018-01-26 08:52:47.839000,4164.83870968,0,4215.80645161,0,4124.83870968,0,4064.83870968,0,4163.22580645,0,4204.51612903,0,4161.61290323,0,4118.06451613,0,3972.58064516,0,4070.32258065,0,4139.35483871,0,4133.5483871,0,4171.29032258,0,4162.25806452,0,0,0,?
2018-01-26 08:52:47.848000,4143.22580645,0,4212.25806452,0,4115.48387097,0,4099.35483871,0,4145.16129032,0,4200.32258065,0,4148.38709677,0,4098.38709677,0,3991.61290323,0,4112.90322581,0,4141.61290323,0,4137.74193548,0,4173.22580645,0,4192.25806452,0,0,0,?
2018-01-26 08:52:47.854000,4133.87096774,0,4209.03225806,0,4123.87096774,0,4105.16129032,0,4135.16129032,0,4195.80645161,0,4138.38709677,0,4088.06451613,0,4010.32258065,0,4105.48387097,0,4138.06451613,0,4132.90322581,0,4168.06451613,0,4178.70967742,0,0,0,?
2018-01-26 08:52:47.864000,4164.51612903,0,4209.67741935,0,4098.06451613,0,4082.25806452,0,4155.16129032,0,4204.51612903,0,4158.06451613,0,4113.87096774,0,4003.87096774,0,4067.41935484,0,4145.16129032,0,4142.58064516,0,4168.06451613,0,4173.5483871,0,0,0,?
2018-01-26 08:52:47.871000,4151.93548387,0,4213.22580645,0,4107.09677419,0,4092.58064516,0,4162.90322581,0,4167.09677419,0,4163.87096774,0,4115.48387097,0,3987.74193548,0,4074.19354839,0,4145.16129032,0,4143.5483871,0,4170.32258065,0,4209.03225806,0,0,0,?
2018-01-26 08:52:47.879000,4166.77419355,0,4198.38709677,0,4112.58064516,0,4095.48387097,0,4175.16129032,0,4170.0,0,4165.80645161,0,4110.0,0,3974.83870968,0,4076.4516129,0,4149.03225806,0,4143.5483871,0,4177.09677419,0,4186.12903226,0,0,0,?
2018-01-26 08:52:47.887000,4129.35483871,0,4194.19354839,0,4105.16129032,0,4090.0,0,4178.38709677,0,4166.77419355,0,4161.61290323,0,4108.70967742,0,3987.41935484,0,4110.64516129,0,4150.96774194,0,4138.70967742,0,4174.51612903,0,4200.32258065,0,0,0,?
2018-01-26 08:52:47.895000,4133.87096774,0,4172.25806452,0,4099.03225806,0,4093.5483871,0,4176.4516129,0,4167.41935484,0,4166.12903226,0,4127.09677419,0,3947.09677419,0,4110.96774194,0,4153.22580645,0,4131.93548387,0,4169.03225806,0,4187.74193548,0,0,0,?
2018-01-26 08:52:47.903000,4169.67741935,0,4203.87096774,0,4105.80645161,0,4074.83870968,0,4166.77419355,0,4172.25806452,0,4177.41935484,0,4145.16129032,0,3995.16129032,0,4078.38709677,0,4159.35483871,0,4137.74193548,0,4166.4516129,0,4177.74193548,0,0,0,?
2018-01-26 08:52:47.911000,4154.51612903,0,4173.5483871,0,4106.4516129,0,4113.87096774,0,4149.35483871,0,4210.0,0,4167.41935484,0,4139.35483871,0,3994.83870968,0,4074.51612903,0,4156.4516129,0,4139.03225806,0,4175.16129032,0,4210.96774194,0,0,0,?
2018-01-26 08:52:47.918000,4170.32258065,0,4167.74193548,0,4110.32258065,0,4114.51612903,0,4161.93548387,0,4194.19354839,0,4161.61290323,0,4143.22580645,0,3969.67741935,0,4079.67741935,0,4159.35483871,0,4138.70967742,0,4187.41935484,0,4176.77419355,0,0,0,?
2018-01-26 08:52:47.926000,4132.58064516,0,4162.58064516,0,4115.80645161,0,4106.77419355,0,4172.25806452,0,4206.77419355,0,4161.93548387,0,4138.06451613,0,3979.03225806,0,4086.12903226,0,4156.12903226,0,4134.19354839,0,4178.70967742,0,4178.70967742,0,0,0,?
2018-01-26 08:52:47.935000,4143.5483871,0,4211.29032258,0,4126.12903226,0,4090.32258065,0,4135.80645161,0,4172.90322581,0,4171.29032258,0,4136.4516129,0,3999.35483871,0,4088.70967742,0,4160.0,0,4135.48387097,0,4180.64516129,0,4183.22580645,0,0,0,?
2018-01-26 08:52:47.942000,4164.51612903,0,4194.19354839,0,4134.51612903,0,4120.96774194,0,4152.90322581,0,4171.29032258,0,4178.38709677,0,4099.35483871,0,4005.80645161,0,4096.77419355,0,4169.67741935,0,4142.58064516,0,4188.38709677,0,4173.22580645,0,0,0,?
2018-01-26 08:52:47.949000,4145.48387097,0,4191.61290323,0,4131.29032258,0,4103.22580645,0,4142.58064516,0,4172.90322581,0,4174.51612903,0,4142.90322581,0,3986.12903226,0,4092.58064516,0,4163.22580645,0,4137.41935484,0,4180.32258065,0,4190.64516129,0,0,0,?
2018-01-26 08:52:47.957000,4167.41935484,0,4173.87096774,0,4130.64516129,0,4110.32258065,0,4139.67741935,0,4168.70967742,0,4132.25806452,0,4139.67741935,0,4001.29032258,0,4097.09677419,0,4169.03225806,0,4141.61290323,0,4179.35483871,0,4163.87096774,0,0,0,?
2018-01-26 08:52:47.965000,4173.87096774,0,4160.64516129,0,4106.77419355,0,4097.41935484,0,4136.4516129,0,4164.83870968,0,4176.4516129,0,4135.80645161,0,3991.61290323,0,4092.25806452,0,4168.38709677,0,4141.61290323,0,4180.64516129,0,4173.87096774,0,0,0,?
2018-01-26 08:52:47.973000,4144.83870968,0,4158.38709677,0,4138.38709677,0,4099.03225806,0,4153.87096774,0,4170.64516129,0,4176.77419355,0,4144.51612903,0,3984.51612903,0,4084.51612903,0,4166.77419355,0,4140.0,0,4183.5483871,0,4175.16129032,0,0,0,?
2018-01-26 08:52:47.980000,4167.41935484,0,4145.16129032,0,4110.64516129,0,4137.74193548,0,4170.0,0,4169.35483871,0,4137.41935484,0,4111.93548387,0,3969.03225806,0,4094.83870968,0,4175.80645161,0,4149.67741935,0,4186.12903226,0,4164.19354839,0,0,0,?
2018-01-26 08:52:47.989000,4147.74193548,0,4142.58064516,0,4112.90322581,0,4118.06451613,0,4135.16129032,0,4208.70967742,0,4172.58064516,0,4142.58064516,0,3978.70967742,0,4097.41935484,0,4165.16129032,0,4147.41935484,0,4183.5483871,0,4188.06451613,0,0,0,?
2018-01-26 08:52:47.997000,4171.61290323,0,4175.80645161,0,4103.5483871,0,4098.06451613,0,4178.06451613,0,4202.58064516,0,4166.4516129,0,4129.35483871,0,3939.67741935,0,4110.64516129,0,4165.16129032,0,4146.77419355,0,4182.25806452,0,4154.83870968,0,0,0,?
2018-01-26 08:52:48.004000,4175.80645161,0,4173.5483871,0,4121.93548387,0,4113.87096774,0,4142.90322581,0,4211.29032258,0,4170.32258065,0,4129.35483871,0,3956.12903226,0,4111.93548387,0,4167.09677419,0,4138.70967742,0,4180.32258065,0,4172.25806452,0,0,0,?
2018-01-26 08:52:48.014000,4154.51612903,0,4173.87096774,0,4138.70967742,0,4131.93548387,0,4145.16129032,0,4209.03225806,0,4163.87096774,0,4130.96774194,0,3987.74193548,0,4100.96774194,0,4161.93548387,0,4130.0,0,4185.48387097,0,4183.22580645,0,0,0,?
2018-01-26 08:52:48.020000,4167.09677419,0,4151.93548387,0,4138.70967742,0,4134.19354839,0,4151.93548387,0,4200.96774194,0,4160.64516129,0,4143.22580645,0,3965.16129032,0,4105.80645161,0,4167.41935484,0,4137.74193548,0,4192.58064516,0,4147.74193548,0,0,0,?
2018-01-26 08:52:48.031000,4143.87096774,0,4152.25806452,0,4132.25806452,0,4124.51612903,0,4149.35483871,0,4172.90322581,0,4165.48387097,0,4129.67741935,0,3952.90322581,0,4085.80645161,0,4167.74193548,0,4147.09677419,0,4185.16129032,0,4182.25806452,0,0,0,?
2018-01-26 08:52:48.051000,4132.25806452,0,4140.96774194,0,4140.0,0,4119.03225806,0,4175.48387097,0,4185.16129032,0,4131.29032258,0,4136.77419355,0,3954.19354839,0,4089.03225806,0,4172.90322581,0,4154.83870968,0,4184.83870968,0,4167.09677419,0,0,0,?
2018-01-26 08:52:48.054000,4132.25806452,0,4140.96774194,0,4140.0,0,4119.03225806,0,4175.48387097,0,4185.16129032,0,4131.29032258,0,4136.77419355,0,3954.19354839,0,4089.03225806,0,4172.90322581,0,4154.83870968,0,4184.83870968,0,4167.09677419,0,0,0,?
2018-01-26 08:52:48.056000,4133.22580645,0,4124.83870968,0,4141.29032258,0,4129.67741935,0,4187.74193548,0,4170.0,0,4176.4516129,0,4104.51612903,0,3991.93548387,0,4118.70967742,0,4179.35483871,0,4150.32258065,0,4188.70967742,0,4160.0,0,0,0,?
2018-01-26 08:52:48.060000,4156.4516129,0,4116.12903226,0,4129.35483871,0,4103.5483871,0,4172.25806452,0,4166.77419355,0,4161.29032258,0,4099.03225806,0,3947.74193548,0,4114.83870968,0,4175.16129032,0,4154.51612903,0,4188.38709677,0,4170.96774194,0,0,0,?
2018-01-26 08:52:48.067000,4162.25806452,0,4098.38709677,0,4135.16129032,0,4129.67741935,0,4198.06451613,0,4172.90322581,0,4171.29032258,0,4100.64516129,0,3973.87096774,0,4110.0,0,4179.03225806,0,4159.67741935,0,4190.96774194,0,4145.80645161,0,0,0,?
2018-01-26 08:52:48.078000,4138.38709677,0,4101.93548387,0,4148.38709677,0,4127.41935484,0,4211.29032258,0,4171.93548387,0,4173.5483871,0,4143.22580645,0,4003.22580645,0,4114.19354839,0,4176.4516129,0,4146.77419355,0,4186.77419355,0,4177.74193548,0,0,0,?
2018-01-26 08:52:48.079000,4133.5483871,0,4139.67741935,0,4160.32258065,0,4145.80645161,0,4209.35483871,0,4164.83870968,0,4177.41935484,0,4144.19354839,0,3994.83870968,0,4119.67741935,0,4177.41935484,0,4150.64516129,0,4188.38709677,0,4164.19354839,0,0,0,?
2018-01-26 08:52:48.083000,4133.5483871,0,4139.67741935,0,4160.32258065,0,4145.80645161,0,4209.35483871,0,4164.83870968,0,4177.41935484,0,4144.19354839,0,3994.83870968,0,4119.67741935,0,4177.41935484,0,4150.64516129,0,4188.38709677,0,4164.19354839,0,0,0,?
2018-01-26 08:52:48.113000,4129.35483871,0,4116.12903226,0,4157.41935484,0,4134.19354839,0,4210.32258065,0,4166.4516129,0,4130.64516129,0,4100.32258065,0,3978.70967742,0,4111.61290323,0,4183.5483871,0,4158.38709677,0,4192.58064516,0,4150.32258065,0,0,0,?
2018-01-26 08:52:48.131000,4155.16129032,0,4107.74193548,0,4158.70967742,0,4174.51612903,0,4170.0,0,4180.0,0,4178.06451613,0,4108.06451613,0,3971.93548387,0,4104.51612903,0,4187.74193548,0,4153.87096774,0,4192.25806452,0,4163.22580645,0,0,0,?
2018-01-26 08:52:48.138000,4159.35483871,0,4074.51612903,0,4150.64516129,0,4176.12903226,0,4194.83870968,0,4189.35483871,0,4129.03225806,0,4106.4516129,0,4001.61290323,0,4109.67741935,0,4196.4516129,0,4150.96774194,0,4199.67741935,0,4178.70967742,0,0,0,?
2018-01-26 08:52:48.138000,4172.58064516,0,4038.70967742,0,4137.09677419,0,4189.03225806,0,4215.16129032,0,4196.12903226,0,4138.06451613,0,4126.12903226,0,4008.06451613,0,4101.29032258,0,4211.29032258,0,4170.96774194,0,4210.32258065,0,4150.0,0,0,0,?
2018-01-26 08:52:48.142000,4172.58064516,0,4038.70967742,0,4137.09677419,0,4189.03225806,0,4215.16129032,0,4196.12903226,0,4138.06451613,0,4126.12903226,0,4008.06451613,0,4101.29032258,0,4211.29032258,0,4170.96774194,0,4210.32258065,0,4150.0,0,0,0,?
2018-01-26 08:52:48.148000,4152.90322581,0,4001.93548387,0,4155.48387097,0,4196.4516129,0,4225.16129032,0,4197.74193548,0,4145.48387097,0,4145.80645161,0,4028.06451613,0,4112.25806452,0,4207.41935484,0,4168.06451613,0,4162.25806452,0,4173.5483871,0,0,0,?
2018-01-26 08:52:48.152000,4158.06451613,0,4025.80645161,0,4157.09677419,0,4169.35483871,0,4220.0,0,4182.90322581,0,4142.58064516,0,4135.16129032,0,3981.93548387,0,4137.74193548,0,4204.83870968,0,4161.93548387,0,4207.74193548,0,4165.48387097,0,0,0,?
2018-01-26 08:52:48.173000,4177.41935484,0,4038.70967742,0,4168.70967742,0,4163.87096774,0,4213.87096774,0,4173.5483871,0,4134.83870968,0,4127.09677419,0,4001.93548387,0,4141.61290323,0,4162.58064516,0,4163.87096774,0,4209.35483871,0,4152.25806452,0,0,0,?
2018-01-26 08:52:48.177000,4157.41935484,0,4064.51612903,0,4166.77419355,0,4153.87096774,0,4217.74193548,0,4180.32258065,0,4176.77419355,0,4125.16129032,0,4046.12903226,0,4100.96774194,0,4161.29032258,0,4157.09677419,0,4165.16129032,0,4173.22580645,0,0,0,?
2018-01-26 08:52:48.180000,4157.41935484,0,4064.51612903,0,4166.77419355,0,4153.87096774,0,4217.74193548,0,4180.32258065,0,4176.77419355,0,4125.16129032,0,4046.12903226,0,4100.96774194,0,4161.29032258,0,4157.09677419,0,4165.16129032,0,4173.22580645,0,0,0,?
2018-01-26 08:52:48.195000,4132.90322581,0,4010.64516129,0,4179.35483871,0,4180.96774194,0,4241.61290323,0,4185.48387097,0,4145.80645161,0,4143.22580645,0,4005.80645161,0,4113.5483871,0,4167.74193548,0,4169.67741935,0,4174.83870968,0,4149.35483871,0,0,0,?
2018-01-26 08:52:48.196000,4150.0,0,4001.61290323,0,4193.22580645,0,4186.77419355,0,4223.5483871,0,4190.32258065,0,4147.41935484,0,4132.90322581,0,4019.03225806,0,4107.74193548,0,4162.25806452,0,4177.74193548,0,4166.12903226,0,4173.87096774,0,0,0,?
2018-01-26 08:52:48.201000,4150.0,0,4001.61290323,0,4193.22580645,0,4186.77419355,0,4223.5483871,0,4190.32258065,0,4147.41935484,0,4132.90322581,0,4019.03225806,0,4107.74193548,0,4162.25806452,0,4177.74193548,0,4166.12903226,0,4173.87096774,0,0,0,?
2018-01-26 08:52:48.266000,4149.35483871,0,4041.29032258,0,4183.22580645,0,4224.51612903,0,4216.4516129,0,4186.4516129,0,4132.90322581,0,4110.0,0,4009.67741935,0,4100.0,0,4210.64516129,0,4170.32258065,0,4161.29032258,0,4168.70967742,0,0,0,?
2018-01-26 08:52:48.267000,4175.48387097,0,4006.12903226,0,4171.93548387,0,4215.16129032,0,4238.38709677,0,4177.09677419,0,4139.35483871,0,4116.4516129,0,4020.64516129,0,4108.06451613,0,4173.22580645,0,4175.80645161,0,4167.41935484,0,4151.61290323,0,0,0,?
2018-01-26 08:52:48.270000,4173.5483871,0,3949.67741935,0,4166.12903226,0,4229.35483871,0,4208.38709677,0,4179.67741935,0,4166.12903226,0,4120.64516129,0,4040.64516129,0,4110.64516129,0,4165.48387097,0,4179.03225806,0,4169.67741935,0,4160.0,0,0,0,?
2018-01-26 08:52:48.275000,4144.51612903,0,3943.87096774,0,4168.06451613,0,4211.61290323,0,4208.06451613,0,4170.96774194,0,4178.70967742,0,4136.12903226,0,4015.48387097,0,4124.51612903,0,4172.90322581,0,4173.87096774,0,4170.0,0,4140.32258065,0,0,0,?
2018-01-26 08:52:48.279000,4144.83870968,0,3992.90322581,0,4204.83870968,0,4234.19354839,0,4205.16129032,0,4171.61290323,0,4175.16129032,0,4141.93548387,0,4030.96774194,0,4134.19354839,0,4181.29032258,0,4179.03225806,0,4181.29032258,0,4154.83870968,0,0,0,?
2018-01-26 08:52:48.287000,4163.5483871,0,3986.12903226,0,4206.12903226,0,4232.25806452,0,4212.90322581,0,4178.38709677,0,4167.74193548,0,4137.09677419,0,4034.19354839,0,4129.67741935,0,4180.32258065,0,4177.74193548,0,4181.61290323,0,4163.87096774,0,0,0,?
2018-01-26 08:52:48.290000,4131.93548387,0,4006.12903226,0,4178.06451613,0,4257.74193548,0,4230.96774194,0,4171.93548387,0,4131.61290323,0,4148.38709677,0,4073.5483871,0,4143.87096774,0,4175.16129032,0,4133.22580645,0,4175.16129032,0,4140.0,0,0,0,?
2018-01-26 08:52:48.303000,4167.41935484,0,3980.0,0,4184.51612903,0,4234.19354839,0,4231.29032258,0,4165.48387097,0,4178.70967742,0,4143.22580645,0,4058.06451613,0,4142.25806452,0,4168.38709677,0,4142.58064516,0,4173.5483871,0,4164.19354839,0,0,0,?
2018-01-26 08:52:48.307000,4142.25806452,0,4004.19354839,0,4192.25806452,0,4239.03225806,0,4258.70967742,0,4173.5483871,0,4137.09677419,0,4160.0,0,4055.16129032,0,4154.83870968,0,4178.38709677,0,4152.25806452,0,4176.77419355,0,4148.06451613,0,0,0,?
2018-01-26 08:52:48.331000,4141.93548387,0,4007.09677419,0,4197.41935484,0,4248.70967742,0,4267.74193548,0,4181.29032258,0,4144.83870968,0,4133.22580645,0,4050.32258065,0,4168.38709677,0,4179.67741935,0,4146.4516129,0,4174.83870968,0,4159.67741935,0,0,0,?
2018-01-26 08:52:48.334000,4170.96774194,0,4019.35483871,0,4187.09677419,0,4263.22580645,0,4249.35483871,0,4165.48387097,0,4138.06451613,0,4131.93548387,0,4054.83870968,0,4152.58064516,0,4170.64516129,0,4144.83870968,0,4180.64516129,0,4164.83870968,0,0,0,?
2018-01-26 08:52:48.336000,4170.96774194,0,4019.35483871,0,4187.09677419,0,4263.22580645,0,4249.35483871,0,4165.48387097,0,4138.06451613,0,4131.93548387,0,4054.83870968,0,4152.58064516,0,4170.64516129,0,4144.83870968,0,4180.64516129,0,4164.83870968,0,0,0,?
2018-01-26 08:52:48.340000,4134.83870968,0,3995.48387097,0,4187.41935484,0,4306.77419355,0,4255.16129032,0,4208.06451613,0,4140.64516129,0,4176.12903226,0,4043.87096774,0,4148.70967742,0,4179.35483871,0,4159.35483871,0,4191.29032258,0,4136.12903226,0,0,0,?
2018-01-26 08:52:48.342000,4169.35483871,0,3973.87096774,0,4183.87096774,0,4308.06451613,0,4252.25806452,0,4164.19354839,0,4131.29032258,0,4164.19354839,0,4063.87096774,0,4150.0,0,4173.5483871,0,4156.4516129,0,4181.61290323,0,4156.77419355,0,0,0,?
2018-01-26 08:52:48.346000,4159.35483871,0,3973.5483871,0,4180.32258065,0,4299.35483871,0,4258.06451613,0,4202.25806452,0,4174.83870968,0,4177.41935484,0,4110.32258065,0,4159.35483871,0,4167.74193548,0,4154.51612903,0,4178.38709677,0,4134.19354839,0,0,0,?
2018-01-26 08:52:48.351000,4149.03225806,0,4000.32258065,0,4187.74193548,0,4280.32258065,0,4266.4516129,0,4187.09677419,0,4172.90322581,0,4130.96774194,0,4088.06451613,0,4166.77419355,0,4170.96774194,0,4155.80645161,0,4190.32258065,0,4147.41935484,0,0,0,?
2018-01-26 08:52:48.362000,4168.70967742,0,4026.4516129,0,4195.16129032,0,4277.41935484,0,4268.06451613,0,4189.67741935,0,4169.03225806,0,4166.4516129,0,4052.25806452,0,4164.19354839,0,4167.41935484,0,4150.96774194,0,4184.19354839,0,4161.29032258,0,0,0,?
2018-01-26 08:52:48.397000,4131.29032258,0,3996.77419355,0,4199.03225806,0,4276.77419355,0,4229.67741935,0,4199.35483871,0,4174.19354839,0,4133.87096774,0,4113.5483871,0,4179.03225806,0,4173.22580645,0,4161.29032258,0,4179.35483871,0,4172.25806452,0,0,0,?
2018-01-26 08:52:48.412000,4168.06451613,0,3956.77419355,0,4212.58064516,0,4330.64516129,0,4261.29032258,0,4197.74193548,0,4169.67741935,0,4165.80645161,0,4135.80645161,0,4176.4516129,0,4177.74193548,0,4174.83870968,0,4200.0,0,4159.67741935,0,0,0,?
2018-01-26 08:52:48.420000,4165.80645161,0,3990.32258065,0,4220.0,0,4298.06451613,0,4268.70967742,0,4198.70967742,0,4173.5483871,0,4171.93548387,0,4097.41935484,0,4192.25806452,0,4186.4516129,0,4188.06451613,0,4192.90322581,0,4145.48387097,0,0,0,?
2018-01-26 08:52:48.423000,4141.61290323,0,4026.4516129,0,4221.93548387,0,4301.93548387,0,4279.67741935,0,4189.35483871,0,4130.96774194,0,4182.90322581,0,4125.48387097,0,4206.77419355,0,4192.90322581,0,4192.90322581,0,4188.38709677,0,4178.06451613,0,0,0,?
2018-01-26 08:52:48.452000,4174.19354839,0,4014.19354839,0,4217.41935484,0,4311.61290323,0,4268.70967742,0,4190.32258065,0,4178.06451613,0,4175.80645161,0,4088.38709677,0,4193.87096774,0,4173.22580645,0,4181.29032258,0,4185.48387097,0,4149.35483871,0,0,0,?
2018-01-26 08:52:48.453000,4174.19354839,0,4014.19354839,0,4217.41935484,0,4311.61290323,0,4268.70967742,0,4190.32258065,0,4178.06451613,0,4175.80645161,0,4088.38709677,0,4193.87096774,0,4173.22580645,0,4181.29032258,0,4185.48387097,0,4149.35483871,0,0,0,?
2018-01-26 08:52:48.456000,4149.03225806,0,4003.22580645,0,4225.48387097,0,4316.4516129,0,4273.87096774,0,4190.32258065,0,4129.35483871,0,4188.06451613,0,4142.25806452,0,4200.64516129,0,4174.19354839,0,4180.32258065,0,4193.87096774,0,4133.87096774,0,0,0,?
2018-01-26 08:52:48.463000,4171.29032258,0,4026.12903226,0,4218.70967742,0,4332.25806452,0,4267.74193548,0,4190.96774194,0,4170.96774194,0,4185.16129032,0,4111.93548387,0,4210.64516129,0,4186.77419355,0,4167.41935484,0,4192.90322581,0,4150.64516129,0,0,0,?
2018-01-26 08:52:48.467000,4164.19354839,0,4024.51612903,0,4221.93548387,0,4313.22580645,0,4278.38709677,0,4193.5483871,0,4177.41935484,0,4192.25806452,0,4121.61290323,0,4171.29032258,0,4192.25806452,0,4159.67741935,0,4189.03225806,0,4130.0,0,0,0,?
2018-01-26 08:52:48.472000,4140.0,0,4012.90322581,0,4240.32258065,0,4344.83870968,0,4288.38709677,0,4189.03225806,0,4139.35483871,0,4166.12903226,0,4163.87096774,0,4182.25806452,0,4187.74193548,0,4173.5483871,0,4188.06451613,0,4172.25806452,0,0,0,?
2018-01-26 08:52:48.474000,4175.48387097,0,3945.16129032,0,4235.48387097,0,4318.70967742,0,4274.19354839,0,4185.16129032,0,4172.25806452,0,4205.80645161,0,4117.09677419,0,4164.83870968,0,4174.83870968,0,4177.74193548,0,4185.48387097,0,4150.32258065,0,0,0,?
2018-01-26 08:52:48.478000,4143.5483871,0,3980.32258065,0,4231.93548387,0,4298.70967742,0,4284.83870968,0,4180.96774194,0,4173.22580645,0,4198.06451613,0,4132.90322581,0,4210.64516129,0,4171.61290323,0,4171.61290323,0,4194.19354839,0,4166.77419355,0,0,0,?
2018-01-26 08:52:48.485000,4162.90322581,0,3972.58064516,0,4236.4516129,0,4305.16129032,0,4284.83870968,0,4180.0,0,4131.61290323,0,4209.67741935,0,4153.22580645,0,4172.25806452,0,4170.32258065,0,4170.64516129,0,4195.16129032,0,4177.74193548,0,0,0,?
2018-01-26 08:52:48.500000,4169.67741935,0,3979.67741935,0,4238.38709677,0,4339.35483871,0,4285.16129032,0,4177.09677419,0,4131.93548387,0,4183.22580645,0,4174.83870968,0,4193.22580645,0,4184.83870968,0,4189.67741935,0,4193.87096774,0,4176.77419355,0,0,0,?
2018-01-26 08:52:48.504000,4142.90322581,0,3966.12903226,0,4239.35483871,0,4343.87096774,0,4303.22580645,0,4180.32258065,0,4135.80645161,0,4184.51612903,0,4151.93548387,0,4202.90322581,0,4192.58064516,0,4196.77419355,0,4189.67741935,0,4171.61290323,0,0,0,?
2018-01-26 08:52:48.509000,4188.38709677,0,3989.67741935,0,4235.80645161,0,4334.19354839,0,4259.67741935,0,4174.51612903,0,4177.41935484,0,4166.77419355,0,4170.0,0,4187.41935484,0,4165.16129032,0,4177.09677419,0,4191.93548387,0,4152.90322581,0,0,0,?
2018-01-26 08:52:48.519000,4159.03225806,0,3995.80645161,0,4241.29032258,0,4367.74193548,0,4263.5483871,0,4161.93548387,0,4176.12903226,0,4190.96774194,0,4162.25806452,0,4202.90322581,0,4164.51612903,0,4184.19354839,0,4214.83870968,0,4171.61290323,0,0,0,?
2018-01-26 08:52:48.524000,4151.61290323,0,3998.06451613,0,4236.77419355,0,4332.90322581,0,4295.80645161,0,4167.74193548,0,4174.83870968,0,4198.06451613,0,4140.64516129,0,4223.5483871,0,4186.12903226,0,4206.12903226,0,4220.96774194,0,4174.19354839,0,0,0,?
2018-01-26 08:52:48.548000,4163.22580645,0,4006.4516129,0,4238.38709677,0,4307.41935484,0,4302.90322581,0,4173.87096774,0,4132.58064516,0,4186.4516129,0,4129.67741935,0,4229.03225806,0,4184.19354839,0,4161.93548387,0,4216.12903226,0,4174.19354839,0,0,0,?
2018-01-26 08:52:48.554000,4144.51612903,0,4004.83870968,0,4210.0,0,4364.83870968,0,4289.67741935,0,4178.06451613,0,4147.41935484,0,4206.4516129,0,4204.51612903,0,4232.90322581,0,4179.03225806,0,4187.41935484,0,4218.06451613,0,4161.29032258,0,0,0,?
2018-01-26 08:52:48.556000,4177.74193548,0,4016.12903226,0,4203.22580645,0,4326.77419355,0,4279.03225806,0,4173.5483871,0,4137.41935484,0,4217.09677419,0,4211.29032258,0,4224.83870968,0,4179.35483871,0,4148.38709677,0,4217.41935484,0,4136.4516129,0,0,0,?
2018-01-26 08:52:48.567000,4142.25806452,0,4016.77419355,0,4227.41935484,0,4355.48387097,0,4260.0,0,4161.29032258,0,4129.03225806,0,4218.06451613,0,4196.77419355,0,4239.03225806,0,4178.06451613,0,4140.32258065,0,4221.93548387,0,4144.19354839,0,0,0,?
2018-01-26 08:52:48.568000,4146.12903226,0,3974.51612903,0,4225.16129032,0,4329.03225806,0,4262.25806452,0,4170.0,0,4176.4516129,0,4212.90322581,0,4185.48387097,0,4232.90322581,0,4164.19354839,0,4143.87096774,0,4217.09677419,0,4151.29032258,0,0,0,?
2018-01-26 08:52:48.585000,4172.90322581,0,3988.38709677,0,4239.35483871,0,4347.09677419,0,4286.12903226,0,4173.87096774,0,4132.58064516,0,4210.64516129,0,4156.4516129,0,4214.83870968,0,4161.93548387,0,4140.64516129,0,4212.58064516,0,4174.51612903,0,0,0,?
2018-01-26 08:52:48.587000,4146.77419355,0,3988.70967742,0,4230.64516129,0,4344.19354839,0,4300.96774194,0,4151.93548387,0,4138.06451613,0,4229.35483871,0,4190.96774194,0,4236.4516129,0,4170.96774194,0,4140.0,0,4221.29032258,0,4150.64516129,0,0,0,?
2018-01-26 08:52:48.597000,4161.29032258,0,4023.22580645,0,4213.5483871,0,4340.0,0,4292.58064516,0,4155.80645161,0,4140.96774194,0,4240.32258065,0,4209.67741935,0,4240.96774194,0,4210.96774194,0,4161.61290323,0,4217.74193548,0,4155.16129032,0,0,0,?
2018-01-26 08:52:48.601000,4161.29032258,0,4023.22580645,0,4224.19354839,0,4340.0,0,4292.58064516,0,4155.80645161,0,4140.96774194,0,4240.32258065,0,4209.67741935,0,4228.06451613,0,4211.29032258,0,4161.61290323,0,4217.74193548,0,4155.16129032,0,0,0,?
2018-01-26 08:52:48.622000,4151.61290323,0,4027.09677419,0,4220.0,0,4348.06451613,0,4294.83870968,0,4140.96774194,0,4132.25806452,0,4207.41935484,0,4206.12903226,0,4217.74193548,0,4209.03225806,0,4152.90322581,0,4213.5483871,0,4151.29032258,0,0,0,?
2018-01-26 08:52:48.624000,4179.35483871,0,4045.80645161,0,4209.35483871,0,4361.29032258,0,4288.38709677,0,4170.64516129,0,4159.67741935,0,4188.70967742,0,4180.96774194,0,4220.96774194,0,4208.38709677,0,4141.29032258,0,4212.25806452,0,4150.64516129,0,0,0,?
2018-01-26 08:52:48.632000,4146.77419355,0,4003.5483871,0,4235.80645161,0,4337.74193548,0,4304.83870968,0,4175.80645161,0,4171.29032258,0,4211.93548387,0,4165.16129032,0,4237.09677419,0,4179.03225806,0,4156.12903226,0,4218.38709677,0,4135.80645161,0,0,0,?
2018-01-26 08:52:48.636000,4174.83870968,0,4017.74193548,0,4196.4516129,0,4322.25806452,0,4266.12903226,0,4143.22580645,0,4172.90322581,0,4218.70967742,0,4210.32258065,0,4227.09677419,0,4174.83870968,0,4157.41935484,0,4216.4516129,0,4168.38709677,0,0,0,?
2018-01-26 08:52:48.648000,4155.48387097,0,4017.09677419,0,4236.4516129,0,4325.80645161,0,4287.74193548,0,4140.96774194,0,4130.64516129,0,4197.41935484,0,4190.32258065,0,4230.96774194,0,4171.29032258,0,4164.83870968,0,4221.93548387,0,4141.61290323,0,0,0,?
2018-01-26 08:52:48.651000,4148.38709677,0,4023.87096774,0,4226.77419355,0,4300.96774194,0,4285.48387097,0,4138.38709677,0,4150.0,0,4219.67741935,0,4240.64516129,0,4195.48387097,0,4176.4516129,0,4177.74193548,0,4229.35483871,0,4142.58064516,0,0,0,?
2018-01-26 08:52:48.661000,4179.35483871,0,4034.51612903,0,4214.19354839,0,4294.83870968,0,4261.61290323,0,4146.4516129,0,4147.09677419,0,4201.61290323,0,4240.64516129,0,4196.12903226,0,4172.90322581,0,4166.4516129,0,4224.19354839,0,4159.03225806,0,0,0,?
2018-01-26 08:52:48.668000,4141.61290323,0,4025.80645161,0,4204.51612903,0,4299.03225806,0,4265.16129032,0,4132.90322581,0,4141.61290323,0,4197.09677419,0,4237.09677419,0,4205.48387097,0,4174.19354839,0,4171.93548387,0,4223.22580645,0,4125.48387097,0,0,0,?
2018-01-26 08:52:48.681000,4161.93548387,0,4043.87096774,0,4185.48387097,0,4326.12903226,0,4303.5483871,0,4167.41935484,0,4133.22580645,0,4240.32258065,0,4217.41935484,0,4204.83870968,0,4162.58064516,0,4181.29032258,0,4223.5483871,0,4151.29032258,0,0,0,?
2018-01-26 08:52:48.684000,4151.29032258,0,4055.48387097,0,4166.77419355,0,4301.61290323,0,4298.38709677,0,4165.48387097,0,4136.12903226,0,4199.67741935,0,4243.5483871,0,4203.87096774,0,4162.25806452,0,4173.22580645,0,4219.67741935,0,4135.48387097,0,0,0,?
2018-01-26 08:52:48.694000,4150.32258065,0,4063.5483871,0,4210.64516129,0,4362.90322581,0,4299.03225806,0,4159.03225806,0,4139.35483871,0,4214.83870968,0,4240.32258065,0,4202.25806452,0,4172.25806452,0,4176.4516129,0,4217.74193548,0,4124.83870968,0,0,0,?
2018-01-26 08:52:48.698000,4190.96774194,0,4079.03225806,0,4210.32258065,0,4355.48387097,0,4292.90322581,0,4158.70967742,0,4129.67741935,0,4209.03225806,0,4199.03225806,0,4200.0,0,4166.77419355,0,4189.03225806,0,4217.74193548,0,4147.09677419,0,0,0,?
2018-01-26 08:52:48.711000,4149.03225806,0,4062.58064516,0,4207.74193548,0,4336.77419355,0,4301.61290323,0,4162.58064516,0,4138.70967742,0,4220.64516129,0,4219.35483871,0,4220.32258065,0,4163.22580645,0,4185.16129032,0,4215.48387097,0,4122.25806452,0,0,0,?
2018-01-26 08:52:48.720000,4168.06451613,0,4070.64516129,0,4190.0,0,4329.35483871,0,4287.74193548,0,4160.96774194,0,4142.90322581,0,4217.74193548,0,4240.0,0,4217.74193548,0,4209.03225806,0,4173.87096774,0,4210.0,0,4137.74193548,0,0,0,?
2018-01-26 08:52:48.741000,4169.03225806,0,4033.5483871,0,4186.77419355,0,4334.83870968,0,4282.90322581,0,4152.25806452,0,4131.93548387,0,4205.80645161,0,4214.51612903,0,4206.12903226,0,4206.4516129,0,4186.77419355,0,4221.29032258,0,4127.74193548,0,0,0,?
2018-01-26 08:52:48.746000,4153.22580645,0,4040.64516129,0,4202.90322581,0,4364.19354839,0,4261.61290323,0,4157.41935484,0,4149.67741935,0,4219.35483871,0,4246.77419355,0,4256.4516129,0,4202.25806452,0,4209.03225806,0,4221.61290323,0,4122.90322581,0,0,0,?
2018-01-26 08:52:48.751000,4181.61290323,0,4052.58064516,0,4202.58064516,0,4316.12903226,0,4285.80645161,0,4152.58064516,0,4145.48387097,0,4222.25806452,0,4234.83870968,0,4239.03225806,0,4196.77419355,0,4203.22580645,0,4217.09677419,0,4162.25806452,0,0,0,?
2018-01-26 08:52:48.757000,4142.58064516,0,4050.32258065,0,4204.51612903,0,4335.16129032,0,4304.83870968,0,4158.38709677,0,4154.19354839,0,4260.0,0,4193.87096774,0,4248.70967742,0,4202.58064516,0,4193.22580645,0,4214.83870968,0,4136.12903226,0,0,0,?
2018-01-26 08:52:48.761000,4159.67741935,0,4059.67741935,0,4200.96774194,0,4341.61290323,0,4303.22580645,0,4156.4516129,0,4145.16129032,0,4252.25806452,0,4250.32258065,0,4251.29032258,0,4200.64516129,0,4196.77419355,0,4218.38709677,0,4140.64516129,0,0,0,?
2018-01-26 08:52:48.772000,4176.77419355,0,4063.5483871,0,4200.0,0,4317.74193548,0,4287.09677419,0,4141.93548387,0,4138.38709677,0,4219.67741935,0,4261.61290323,0,4246.12903226,0,4194.83870968,0,4204.83870968,0,4224.83870968,0,4135.80645161,0,0,0,?
2018-01-26 08:52:48.778000,4144.19354839,0,4056.12903226,0,4207.09677419,0,4334.51612903,0,4286.12903226,0,4147.74193548,0,4151.93548387,0,4226.12903226,0,4235.80645161,0,4259.03225806,0,4195.48387097,0,4210.0,0,4222.90322581,0,4128.06451613,0,0,0,?
2018-01-26 08:52:48.790000,4172.90322581,0,4070.96774194,0,4195.80645161,0,4322.58064516,0,4263.22580645,0,4143.5483871,0,4144.83870968,0,4222.90322581,0,4201.29032258,0,4250.96774194,0,4187.74193548,0,4207.41935484,0,4212.90322581,0,4158.06451613,0,0,0,?
2018-01-26 08:52:48.793000,4149.35483871,0,4069.67741935,0,4191.29032258,0,4294.83870968,0,4268.38709677,0,4127.74193548,0,4152.90322581,0,4229.03225806,0,4242.90322581,0,4255.80645161,0,4193.22580645,0,4163.5483871,0,4222.25806452,0,4122.90322581,0,0,0,?
2018-01-26 08:52:48.804000,4167.41935484,0,4080.32258065,0,4193.87096774,0,4340.0,0,4284.83870968,0,4138.06451613,0,4158.06451613,0,4235.80645161,0,4238.70967742,0,4274.51612903,0,4194.19354839,0,4163.5483871,0,4229.03225806,0,4135.16129032,0,0,0,?
2018-01-26 08:52:48.808000,4185.80645161,0,4103.87096774,0,4195.80645161,0,4313.5483871,0,4277.74193548,0,4143.5483871,0,4152.90322581,0,4241.61290323,0,4246.12903226,0,4229.03225806,0,4195.48387097,0,4209.03225806,0,4221.29032258,0,4146.12903226,0,0,0,?
2018-01-26 08:52:48.819000,4146.77419355,0,4109.03225806,0,4209.35483871,0,4300.64516129,0,4256.77419355,0,4134.83870968,0,4153.22580645,0,4254.19354839,0,4243.87096774,0,4269.03225806,0,4207.41935484,0,4161.93548387,0,4217.09677419,0,4123.87096774,0,0,0,?
2018-01-26 08:52:48.824000,4178.06451613,0,4076.12903226,0,4206.4516129,0,4308.06451613,0,4240.64516129,0,4136.4516129,0,4141.61290323,0,4236.4516129,0,4265.80645161,0,4251.61290323,0,4192.90322581,0,4208.06451613,0,4215.80645161,0,4142.25806452,0,0,0,?
2018-01-26 08:52:48.836000,4157.74193548,0,4082.58064516,0,4211.29032258,0,4339.35483871,0,4260.32258065,0,4131.29032258,0,4145.80645161,0,4234.83870968,0,4268.70967742,0,4273.22580645,0,4189.67741935,0,4161.29032258,0,4218.70967742,0,4116.12903226,0,0,0,?
2018-01-26 08:52:48.840000,4165.80645161,0,4095.16129032,0,4188.38709677,0,4335.80645161,0,4261.93548387,0,4126.77419355,0,4150.32258065,0,4240.96774194,0,4255.16129032,0,4236.12903226,0,4196.12903226,0,4209.35483871,0,4215.80645161,0,4140.96774194,0,0,0,?
2018-01-26 08:52:48.851000,4184.83870968,0,4108.70967742,0,4184.19354839,0,4299.67741935,0,4253.22580645,0,4134.51612903,0,4142.58064516,0,4235.16129032,0,4255.48387097,0,4262.58064516,0,4186.12903226,0,4206.4516129,0,4215.80645161,0,4165.16129032,0,0,0,?
2018-01-26 08:52:48.855000,4138.70967742,0,4098.06451613,0,4203.22580645,0,4330.64516129,0,4250.64516129,0,4129.35483871,0,4148.06451613,0,4241.29032258,0,4265.16129032,0,4252.90322581,0,4186.77419355,0,4165.48387097,0,4224.51612903,0,4124.19354839,0,0,0,?
2018-01-26 08:52:48.869000,4172.25806452,0,4105.80645161,0,4203.87096774,0,4291.29032258,0,4229.35483871,0,4124.19354839,0,4162.90322581,0,4238.06451613,0,4270.96774194,0,4262.25806452,0,4194.83870968,0,4169.35483871,0,4220.32258065,0,4145.16129032,0,0,0,?
2018-01-26 08:52:48.871000,4159.03225806,0,4104.51612903,0,4179.03225806,0,4326.4516129,0,4245.48387097,0,4127.74193548,0,4171.93548387,0,4238.70967742,0,4281.29032258,0,4238.70967742,0,4198.70967742,0,4180.0,0,4220.32258065,0,4141.93548387,0,0,0,?
2018-01-26 08:52:48.880000,4158.38709677,0,4110.0,0,4210.32258065,0,4293.5483871,0,4245.16129032,0,4122.90322581,0,4151.61290323,0,4239.03225806,0,4299.03225806,0,4247.41935484,0,4189.67741935,0,4183.5483871,0,4222.25806452,0,4140.96774194,0,0,0,?
2018-01-26 08:52:48.887000,4185.48387097,0,4123.22580645,0,4184.83870968,0,4291.29032258,0,4263.5483871,0,4118.38709677,0,4140.32258065,0,4245.48387097,0,4251.61290323,0,4243.5483871,0,4184.51612903,0,4175.16129032,0,4219.35483871,0,4096.77419355,0,0,0,?
2018-01-26 08:52:48.901000,4141.61290323,0,4103.87096774,0,4190.96774194,0,4309.35483871,0,4265.80645161,0,4121.61290323,0,4156.4516129,0,4249.67741935,0,4264.51612903,0,4255.48387097,0,4190.0,0,4167.09677419,0,4220.64516129,0,4037.74193548,0,0,0,?
2018-01-26 08:52:48.903000,4169.03225806,0,4110.64516129,0,4186.77419355,0,4305.80645161,0,4262.25806452,0,4129.03225806,0,4147.41935484,0,4231.93548387,0,4227.09677419,0,4249.35483871,0,4180.32258065,0,4210.32258065,0,4217.41935484,0,4092.58064516,0,0,0,?
2018-01-26 08:52:48.914000,4160.64516129,0,4136.12903226,0,4196.12903226,0,4258.06451613,0,4272.58064516,0,4126.12903226,0,4142.90322581,0,4240.96774194,0,4276.77419355,0,4252.90322581,0,4179.35483871,0,4167.41935484,0,4216.4516129,0,4096.77419355,0,0,0,?
2018-01-26 08:52:48.918000,4155.80645161,0,4144.83870968,0,4195.16129032,0,4300.0,0,4226.12903226,0,4117.74193548,0,4144.83870968,0,4237.09677419,0,4262.58064516,0,4258.06451613,0,4180.32258065,0,4167.09677419,0,4215.48387097,0,4068.06451613,0,0,0,?
2018-01-26 08:52:48.932000,4182.90322581,0,4144.19354839,0,4177.09677419,0,4268.38709677,0,4248.70967742,0,4101.61290323,0,4137.74193548,0,4213.22580645,0,4234.83870968,0,4250.96774194,0,4175.48387097,0,4162.25806452,0,4216.12903226,0,4098.70967742,0,0,0,?
2018-01-26 08:52:48.935000,4140.0,0,4138.38709677,0,4185.80645161,0,4295.16129032,0,4237.09677419,0,4097.74193548,0,4147.09677419,0,4218.70967742,0,4249.35483871,0,4262.58064516,0,4177.41935484,0,4167.74193548,0,4221.93548387,0,4064.83870968,0,0,0,?
2018-01-26 08:52:48.946000,4173.22580645,0,4100.0,0,4183.22580645,0,4300.32258065,0,4232.25806452,0,4102.25806452,0,4143.22580645,0,4213.87096774,0,4230.64516129,0,4250.64516129,0,4169.67741935,0,4165.48387097,0,4217.74193548,0,4088.06451613,0,0,0,?
2018-01-26 08:52:48.950000,4173.5483871,0,4098.38709677,0,4179.67741935,0,4301.93548387,0,4237.41935484,0,4146.4516129,0,4144.51612903,0,4237.74193548,0,4232.58064516,0,4242.25806452,0,4168.38709677,0,4176.77419355,0,4217.09677419,0,4081.93548387,0,0,0,?
2018-01-26 08:52:48.963000,4157.74193548,0,4105.80645161,0,4193.22580645,0,4268.06451613,0,4229.35483871,0,4100.96774194,0,4153.87096774,0,4262.58064516,0,4280.96774194,0,4248.70967742,0,4170.32258065,0,4189.35483871,0,4218.70967742,0,4085.48387097,0,0,0,?
2018-01-26 08:52:48.968000,4190.96774194,0,4126.77419355,0,4180.32258065,0,4248.38709677,0,4219.35483871,0,4107.09677419,0,4148.70967742,0,4229.67741935,0,4285.48387097,0,4232.58064516,0,4164.51612903,0,4175.48387097,0,4214.19354839,0,4103.87096774,0,0,0,?
2018-01-26 08:52:48.979000,4159.35483871,0,4110.64516129,0,4156.12903226,0,4282.90322581,0,4235.48387097,0,4140.0,0,4153.22580645,0,4220.64516129,0,4256.4516129,0,4275.48387097,0,4167.41935484,0,4169.35483871,0,4218.38709677,0,4067.09677419,0,0,0,?
2018-01-26 08:52:48.981000,4177.74193548,0,4113.5483871,0,4155.16129032,0,4240.64516129,0,4220.96774194,0,4138.06451613,0,4146.4516129,0,4233.87096774,0,4263.22580645,0,4230.64516129,0,4159.03225806,0,4169.35483871,0,4218.38709677,0,4093.22580645,0,0,0,?
2018-01-26 08:52:48.996000,4169.35483871,0,4114.51612903,0,4172.25806452,0,4211.61290323,0,4209.67741935,0,4098.06451613,0,4134.51612903,0,4229.67741935,0,4282.58064516,0,4248.70967742,0,4157.74193548,0,4166.77419355,0,4213.87096774,0,4092.25806452,0,0,0,?
2018-01-26 08:52:49.002000,4148.38709677,0,4104.83870968,0,4170.64516129,0,4228.06451613,0,4201.29032258,0,4133.87096774,0,4129.03225806,0,4211.29032258,0,4275.48387097,0,4249.67741935,0,4167.09677419,0,4210.96774194,0,4210.64516129,0,4085.80645161,0,0,0,?
2018-01-26 08:52:49.010000,4178.38709677,0,4126.77419355,0,4161.61290323,0,4194.83870968,0,4223.87096774,0,4128.38709677,0,4131.61290323,0,4200.64516129,0,4216.12903226,0,4269.35483871,0,4157.09677419,0,4210.0,0,4205.48387097,0,4108.38709677,0,0,0,?
2018-01-26 08:52:49.015000,4141.61290323,0,4134.19354839,0,4177.09677419,0,4229.35483871,0,4238.38709677,0,4142.90322581,0,4152.58064516,0,4228.70967742,0,4244.83870968,0,4225.80645161,0,4152.90322581,0,4166.77419355,0,4210.32258065,0,4077.74193548,0,0,0,?
2018-01-26 08:52:49.024000,4170.32258065,0,4145.48387097,0,4176.77419355,0,4269.67741935,0,4205.16129032,0,4098.38709677,0,4156.12903226,0,4233.87096774,0,4261.61290323,0,4245.16129032,0,4153.22580645,0,4164.19354839,0,4211.29032258,0,4100.96774194,0,0,0,?
2018-01-26 08:52:49.028000,4178.70967742,0,4160.64516129,0,4168.70967742,0,4251.61290323,0,4203.87096774,0,4140.64516129,0,4152.90322581,0,4221.61290323,0,4282.58064516,0,4246.4516129,0,4156.77419355,0,4174.51612903,0,4212.90322581,0,4099.03225806,0,0,0,?
2018-01-26 08:52:49.037000,4138.06451613,0,4156.4516129,0,4163.22580645,0,4238.38709677,0,4239.35483871,0,4136.77419355,0,4139.03225806,0,4220.0,0,4247.09677419,0,4241.93548387,0,4162.90322581,0,4184.19354839,0,4219.67741935,0,4082.58064516,0,0,0,?
2018-01-26 08:52:49.046000,4167.74193548,0,4150.32258065,0,4140.0,0,4227.74193548,0,4217.09677419,0,4137.41935484,0,4155.16129032,0,4200.32258065,0,4233.87096774,0,4274.83870968,0,4148.06451613,0,4169.35483871,0,4203.22580645,0,4109.67741935,0,0,0,?
2018-01-26 08:52:49.058000,4144.83870968,0,4138.38709677,0,4135.80645161,0,4263.5483871,0,4225.48387097,0,4125.48387097,0,4154.51612903,0,4238.06451613,0,4250.96774194,0,4237.41935484,0,4147.74193548,0,4169.03225806,0,4196.12903226,0,4084.83870968,0,0,0,?
2018-01-26 08:52:49.061000,4165.48387097,0,4157.09677419,0,4147.41935484,0,4222.90322581,0,4221.29032258,0,4134.83870968,0,4156.4516129,0,4226.12903226,0,4254.51612903,0,4256.77419355,0,4154.51612903,0,4164.19354839,0,4208.70967742,0,4104.83870968,0,0,0,?
2018-01-26 08:52:49.070000,4178.70967742,0,4170.64516129,0,4140.0,0,4238.70967742,0,4222.58064516,0,4144.83870968,0,4151.61290323,0,4238.38709677,0,4273.22580645,0,4251.61290323,0,4149.67741935,0,4200.96774194,0,4209.35483871,0,4107.74193548,0,0,0,?
2018-01-26 08:52:49.077000,4141.61290323,0,4159.35483871,0,4167.09677419,0,4261.61290323,0,4226.77419355,0,4127.09677419,0,4155.80645161,0,4209.03225806,0,4296.4516129,0,4243.5483871,0,4149.03225806,0,4206.12903226,0,4203.5483871,0,4082.58064516,0,0,0,?
2018-01-26 08:52:49.086000,4171.61290323,0,4163.5483871,0,4150.0,0,4209.03225806,0,4189.35483871,0,4120.32258065,0,4142.25806452,0,4225.16129032,0,4246.4516129,0,4228.06451613,0,4138.70967742,0,4203.87096774,0,4195.16129032,0,4101.93548387,0,0,0,?
2018-01-26 08:52:49.092000,4145.16129032,0,4159.03225806,0,4155.16129032,0,4200.32258065,0,4186.77419355,0,4130.32258065,0,4145.48387097,0,4212.25806452,0,4236.4516129,0,4237.09677419,0,4136.4516129,0,4197.41935484,0,4194.83870968,0,4078.06451613,0,0,0,?
2018-01-26 08:52:49.104000,4159.03225806,0,4175.80645161,0,4166.12903226,0,4213.22580645,0,4203.22580645,0,4129.03225806,0,4158.38709677,0,4225.16129032,0,4247.41935484,0,4252.90322581,0,4143.22580645,0,4204.51612903,0,4193.22580645,0,4099.35483871,0,0,0,?
2018-01-26 08:52:49.108000,4183.5483871,0,4142.58064516,0,4173.5483871,0,4217.09677419,0,4200.96774194,0,4113.87096774,0,4158.06451613,0,4224.83870968,0,4275.80645161,0,4256.4516129,0,4142.25806452,0,4162.90322581,0,4188.38709677,0,4113.87096774,0,0,0,?
2018-01-26 08:52:49.119000,4149.03225806,0,4178.70967742,0,4135.48387097,0,4231.61290323,0,4193.87096774,0,4115.48387097,0,4164.19354839,0,4232.58064516,0,4258.38709677,0,4265.80645161,0,4134.51612903,0,4210.64516129,0,4189.67741935,0,4087.74193548,0,0,0,?
2018-01-26 08:52:49.124000,4181.93548387,0,4141.93548387,0,4137.41935484,0,4199.67741935,0,4176.77419355,0,4128.06451613,0,4171.29032258,0,4240.96774194,0,4280.32258065,0,4265.80645161,0,4175.16129032,0,4161.61290323,0,4189.35483871,0,4110.32258065,0,0,0,?
2018-01-26 08:52:49.137000,4154.83870968,0,4149.35483871,0,4139.35483871,0,4236.4516129,0,4181.93548387,0,4120.96774194,0,4175.80645161,0,4204.19354839,0,4272.58064516,0,4267.09677419,0,4135.48387097,0,4181.93548387,0,4198.06451613,0,4100.96774194,0,0,0,?
2018-01-26 08:52:49.139000,4150.32258065,0,4152.58064516,0,4135.16129032,0,4196.4516129,0,4186.12903226,0,4119.35483871,0,4165.48387097,0,4196.77419355,0,4268.70967742,0,4260.32258065,0,4137.74193548,0,4185.48387097,0,4202.90322581,0,4116.4516129,0,0,0,?
2018-01-26 08:52:49.152000,4179.67741935,0,4162.25806452,0,4131.29032258,0,4205.48387097,0,4179.35483871,0,4126.4516129,0,4165.16129032,0,4237.09677419,0,4280.96774194,0,4266.12903226,0,4179.03225806,0,4174.83870968,0,4198.38709677,0,4116.12903226,0,0,0,?
2018-01-26 08:52:49.155000,4150.64516129,0,4158.06451613,0,4142.58064516,0,4215.80645161,0,4173.87096774,0,4125.16129032,0,4174.51612903,0,4243.5483871,0,4272.90322581,0,4275.48387097,0,4179.03225806,0,4171.93548387,0,4194.83870968,0,4087.41935484,0,0,0,?
2018-01-26 08:52:49.166000,4176.4516129,0,4166.12903226,0,4135.48387097,0,4197.74193548,0,4209.67741935,0,4124.83870968,0,4161.29032258,0,4235.16129032,0,4233.22580645,0,4250.32258065,0,4167.09677419,0,4210.64516129,0,4189.67741935,0,4121.29032258,0,0,0,?
2018-01-26 08:52:49.172000,4152.90322581,0,4166.4516129,0,4167.74193548,0,4205.48387097,0,4171.61290323,0,4130.0,0,4159.03225806,0,4240.96774194,0,4274.51612903,0,4260.32258065,0,4167.74193548,0,4206.77419355,0,4190.96774194,0,4095.80645161,0,0,0,?
2018-01-26 08:52:49.186000,4144.83870968,0,4165.80645161,0,4152.58064516,0,4239.03225806,0,4207.41935484,0,4126.77419355,0,4158.70967742,0,4229.67741935,0,4277.74193548,0,4269.35483871,0,4169.67741935,0,4210.0,0,4184.19354839,0,4084.83870968,0,0,0,?
2018-01-26 08:52:49.188000,4170.32258065,0,4175.16129032,0,4154.51612903,0,4179.67741935,0,4175.80645161,0,4109.03225806,0,4162.90322581,0,4210.32258065,0,4256.77419355,0,4236.77419355,0,4161.29032258,0,4161.61290323,0,4177.74193548,0,4111.61290323,0,0,0,?
2018-01-26 08:52:49.200000,4134.19354839,0,4178.06451613,0,4173.5483871,0,4178.70967742,0,4192.58064516,0,4102.90322581,0,4177.74193548,0,4227.09677419,0,4231.61290323,0,4239.03225806,0,4166.4516129,0,4170.96774194,0,4181.61290323,0,4107.09677419,0,0,0,?
2018-01-26 08:52:49.202000,4170.0,0,4189.03225806,0,4174.51612903,0,4217.09677419,0,4205.80645161,0,4112.58064516,0,4159.35483871,0,4225.16129032,0,4271.93548387,0,4254.19354839,0,4165.16129032,0,4162.90322581,0,4177.74193548,0,4128.70967742,0,0,0,?
2018-01-26 08:52:49.217000,4160.96774194,0,4180.0,0,4130.64516129,0,4200.96774194,0,4209.35483871,0,4108.70967742,0,4150.32258065,0,4219.67741935,0,4259.35483871,0,4257.41935484,0,4165.48387097,0,4205.16129032,0,4180.64516129,0,4105.16129032,0,0,0,?
2018-01-26 08:52:49.219000,4142.58064516,0,4176.12903226,0,4177.09677419,0,4224.19354839,0,4194.19354839,0,4093.87096774,0,4160.32258065,0,4213.22580645,0,4236.77419355,0,4249.35483871,0,4164.19354839,0,4210.32258065,0,4183.22580645,0,4113.87096774,0,0,0,?
2018-01-26 08:52:49.228000,4171.29032258,0,4190.96774194,0,4153.87096774,0,4187.41935484,0,4182.58064516,0,4090.0,0,4152.90322581,0,4193.5483871,0,4231.29032258,0,4230.0,0,4153.22580645,0,4164.51612903,0,4181.61290323,0,4132.25806452,0,0,0,?
2018-01-26 08:52:49.234000,4140.96774194,0,4185.48387097,0,4152.90322581,0,4195.16129032,0,4201.93548387,0,4105.16129032,0,4154.51612903,0,4198.38709677,0,4247.41935484,0,4233.5483871,0,4158.06451613,0,4169.03225806,0,4185.16129032,0,4095.16129032,0,0,0,?
2018-01-26 08:52:49.246000,4172.58064516,0,4200.0,0,4156.4516129,0,4164.51612903,0,4191.29032258,0,4117.09677419,0,4166.12903226,0,4205.16129032,0,4241.93548387,0,4239.67741935,0,4158.70967742,0,4206.4516129,0,4181.29032258,0,4127.09677419,0,0,0,?
2018-01-26 08:52:49.251000,4164.19354839,0,4205.16129032,0,4169.67741935,0,4192.90322581,0,4186.12903226,0,4121.61290323,0,4179.03225806,0,4217.74193548,0,4277.74193548,0,4245.16129032,0,4163.5483871,0,4205.48387097,0,4180.96774194,0,4122.58064516,0,0,0,?
2018-01-26 08:52:49.261000,4141.93548387,0,4194.51612903,0,4178.38709677,0,4194.51612903,0,4180.0,0,4126.77419355,0,4178.70967742,0,4210.0,0,4292.25806452,0,4246.77419355,0,4167.09677419,0,4164.83870968,0,4180.64516129,0,4113.87096774,0,0,0,?
2018-01-26 08:52:49.267000,4184.51612903,0,4162.58064516,0,4165.48387097,0,4162.90322581,0,4162.90322581,0,4115.16129032,0,4176.77419355,0,4188.70967742,0,4257.41935484,0,4249.67741935,0,4156.12903226,0,4162.25806452,0,4178.06451613,0,4142.25806452,0,0,0,?
2018-01-26 08:52:49.279000,4155.80645161,0,4164.51612903,0,4177.09677419,0,4198.70967742,0,4190.32258065,0,4102.90322581,0,4138.06451613,0,4209.35483871,0,4287.74193548,0,4267.41935484,0,4155.80645161,0,4168.70967742,0,4186.4516129,0,4120.32258065,0,0,0,?
2018-01-26 08:52:49.282000,4164.83870968,0,4171.61290323,0,4142.25806452,0,4203.5483871,0,4195.80645161,0,4118.06451613,0,4174.83870968,0,4209.35483871,0,4298.70967742,0,4259.35483871,0,4162.25806452,0,4168.70967742,0,4184.51612903,0,4140.64516129,0,0,0,?
2018-01-26 08:52:49.293000,4153.5483871,0,4174.83870968,0,4133.22580645,0,4197.74193548,0,4174.19354839,0,4114.83870968,0,4166.12903226,0,4186.12903226,0,4291.29032258,0,4265.16129032,0,4170.0,0,4210.0,0,4179.67741935,0,4133.22580645,0,0,0,?
2018-01-26 08:52:49.298000,4140.0,0,4161.61290323,0,4167.41935484,0,4193.22580645,0,4163.22580645,0,4095.48387097,0,4177.41935484,0,4180.0,0,4299.35483871,0,4290.32258065,0,4163.5483871,0,4208.06451613,0,4178.38709677,0,4123.87096774,0,0,0,?
2018-01-26 08:52:49.311000,4189.35483871,0,4171.61290323,0,4150.96774194,0,4191.93548387,0,4147.09677419,0,4100.96774194,0,4165.80645161,0,4174.19354839,0,4264.51612903,0,4278.70967742,0,4145.16129032,0,4203.87096774,0,4169.35483871,0,4099.67741935,0,0,0,?
2018-01-26 08:52:49.314000,4148.38709677,0,4171.61290323,0,4134.19354839,0,4147.09677419,0,4137.74193548,0,4100.32258065,0,4161.61290323,0,4171.29032258,0,4226.12903226,0,4259.35483871,0,4147.74193548,0,4200.64516129,0,4171.29032258,0,4121.93548387,0,0,0,?
2018-01-26 08:52:49.326000,4148.06451613,0,4175.48387097,0,4133.5483871,0,4165.80645161,0,4135.48387097,0,4095.16129032,0,4174.51612903,0,4166.77419355,0,4251.93548387,0,4242.25806452,0,4144.51612903,0,4196.77419355,0,4180.32258065,0,4139.35483871,0,0,0,?
2018-01-26 08:52:49.328000,4159.03225806,0,4180.96774194,0,4155.16129032,0,4169.67741935,0,4156.4516129,0,4102.90322581,0,4138.06451613,0,4179.67741935,0,4247.09677419,0,4243.5483871,0,4139.03225806,0,4202.90322581,0,4181.29032258,0,4133.22580645,0,0,0,?
2018-01-26 08:52:49.344000,4140.64516129,0,4189.03225806,0,4158.06451613,0,4151.93548387,0,4161.93548387,0,4110.32258065,0,4132.58064516,0,4190.0,0,4304.83870968,0,4273.22580645,0,4139.35483871,0,4207.74193548,0,4176.77419355,0,4119.03225806,0,0,0,?
2018-01-26 08:52:49.347000,4177.41935484,0,4203.5483871,0,4141.61290323,0,4154.51612903,0,4130.32258065,0,4107.74193548,0,4167.41935484,0,4172.90322581,0,4260.96774194,0,4284.19354839,0,4133.22580645,0,4205.48387097,0,4173.22580645,0,4106.4516129,0,0,0,?
2018-01-26 08:52:49.356000,4145.48387097,0,4190.0,0,4151.61290323,0,4160.96774194,0,4137.41935484,0,4100.64516129,0,4132.90322581,0,4182.25806452,0,4244.51612903,0,4285.48387097,0,4147.74193548,0,4208.70967742,0,4177.74193548,0,4135.80645161,0,0,0,?
2018-01-26 08:52:49.360000,4154.83870968,0,4204.83870968,0,4155.48387097,0,4156.12903226,0,4147.74193548,0,4100.96774194,0,4141.29032258,0,4190.96774194,0,4268.70967742,0,4282.25806452,0,4150.96774194,0,4196.4516129,0,4176.12903226,0,4142.25806452,0,0,0,?
2018-01-26 08:52:49.370000,4166.12903226,0,4224.19354839,0,4146.12903226,0,4123.87096774,0,4151.29032258,0,4103.5483871,0,4140.64516129,0,4186.12903226,0,4293.5483871,0,4290.96774194,0,4135.16129032,0,4194.51612903,0,4175.80645161,0,4142.90322581,0,0,0,?
2018-01-26 08:52:49.375000,4136.12903226,0,4218.06451613,0,4150.0,0,4140.96774194,0,4159.35483871,0,4104.83870968,0,4143.87096774,0,4187.09677419,0,4305.80645161,0,4299.35483871,0,4137.41935484,0,4203.22580645,0,4179.03225806,0,4136.77419355,0,0,0,?
2018-01-26 08:52:49.394000,4179.67741935,0,4228.70967742,0,4137.41935484,0,4150.64516129,0,4145.48387097,0,4102.90322581,0,4178.06451613,0,4174.51612903,0,4240.0,0,4274.83870968,0,4138.06451613,0,4190.0,0,4173.87096774,0,4125.16129032,0,0,0,?
2018-01-26 08:52:49.399000,4148.38709677,0,4221.93548387,0,4139.67741935,0,4171.61290323,0,4157.74193548,0,4102.90322581,0,4138.06451613,0,4184.19354839,0,4230.96774194,0,4280.96774194,0,4140.96774194,0,4190.96774194,0,4175.16129032,0,4101.29032258,0,0,0,?
2018-01-26 08:52:49.401000,4148.38709677,0,4221.93548387,0,4139.67741935,0,4171.61290323,0,4157.74193548,0,4102.90322581,0,4138.06451613,0,4184.19354839,0,4230.96774194,0,4280.96774194,0,4140.96774194,0,4190.96774194,0,4175.16129032,0,4101.29032258,0,0,0,?
2018-01-26 08:52:49.408000,4141.29032258,0,4220.64516129,0,4153.5483871,0,4207.74193548,0,4162.25806452,0,4112.90322581,0,4150.64516129,0,4188.06451613,0,4286.77419355,0,4287.74193548,0,4142.58064516,0,4200.0,0,4169.67741935,0,4106.12903226,0,0,0,?
2018-01-26 08:52:49.416000,4163.87096774,0,4230.0,0,4143.87096774,0,4173.22580645,0,4151.29032258,0,4119.03225806,0,4145.48387097,0,4180.96774194,0,4307.09677419,0,4269.35483871,0,4135.16129032,0,4201.61290323,0,4162.90322581,0,4107.09677419,0,0,0,?
2018-01-26 08:52:49.422000,4136.77419355,0,4215.48387097,0,4130.96774194,0,4156.12903226,0,4145.16129032,0,4120.96774194,0,4140.32258065,0,4181.61290323,0,4285.80645161,0,4272.25806452,0,4132.90322581,0,4193.87096774,0,4171.93548387,0,4136.77419355,0,0,0,?
2018-01-26 08:52:49.433000,4170.96774194,0,4209.67741935,0,4115.48387097,0,4163.22580645,0,4168.06451613,0,4115.16129032,0,4169.35483871,0,4198.70967742,0,4235.80645161,0,4267.74193548,0,4130.0,0,4178.06451613,0,4172.58064516,0,4113.5483871,0,0,0,?
2018-01-26 08:52:49.443000,4146.12903226,0,4205.48387097,0,4108.06451613,0,4151.29032258,0,4162.58064516,0,4094.51612903,0,4170.32258065,0,4190.0,0,4246.77419355,0,4266.4516129,0,4128.70967742,0,4186.4516129,0,4165.80645161,0,4130.96774194,0,0,0,?
2018-01-26 08:52:49.448000,4146.12903226,0,4205.48387097,0,4108.06451613,0,4151.29032258,0,4162.58064516,0,4094.51612903,0,4170.32258065,0,4190.0,0,4246.77419355,0,4266.4516129,0,4128.70967742,0,4186.4516129,0,4165.80645161,0,4130.96774194,0,0,0,?
2018-01-26 08:52:49.451000,4146.77419355,0,4214.83870968,0,4117.41935484,0,4162.58064516,0,4162.58064516,0,4095.80645161,0,4130.96774194,0,4200.96774194,0,4244.51612903,0,4267.09677419,0,4127.74193548,0,4200.32258065,0,4166.4516129,0,4139.35483871,0,0,0,?
2018-01-26 08:52:49.462000,4176.4516129,0,4225.16129032,0,4130.0,0,4177.41935484,0,4160.0,0,4112.58064516,0,4129.03225806,0,4186.12903226,0,4258.38709677,0,4268.38709677,0,4139.03225806,0,4196.12903226,0,4167.41935484,0,4111.61290323,0,0,0,?
2018-01-26 08:52:49.464000,4137.09677419,0,4213.22580645,0,4137.09677419,0,4153.87096774,0,4172.90322581,0,4108.38709677,0,4137.74193548,0,4179.35483871,0,4238.70967742,0,4289.35483871,0,4143.87096774,0,4184.19354839,0,4169.03225806,0,4142.90322581,0,0,0,?
2018-01-26 08:52:49.478000,4160.64516129,0,4228.38709677,0,4142.58064516,0,4173.5483871,0,4177.41935484,0,4118.06451613,0,4142.25806452,0,4181.93548387,0,4283.22580645,0,4298.06451613,0,4126.12903226,0,4184.51612903,0,4175.80645161,0,4130.32258065,0,0,0,?
2018-01-26 08:52:49.483000,4139.67741935,0,4241.29032258,0,4150.96774194,0,4162.90322581,0,4140.0,0,4132.90322581,0,4146.12903226,0,4194.19354839,0,4262.90322581,0,4292.90322581,0,4131.93548387,0,4201.93548387,0,4184.51612903,0,4113.5483871,0,0,0,?
2018-01-26 08:52:49.493000,4139.67741935,0,4196.4516129,0,4130.64516129,0,4135.80645161,0,4171.61290323,0,4116.77419355,0,4179.03225806,0,4170.96774194,0,4281.93548387,0,4273.5483871,0,4139.35483871,0,4194.51612903,0,4175.80645161,0,4107.09677419,0,0,0,?
2018-01-26 08:52:49.496000,4178.38709677,0,4212.58064516,0,4119.03225806,0,4139.35483871,0,4142.58064516,0,4107.41935484,0,4164.83870968,0,4142.25806452,0,4230.0,0,4263.5483871,0,4129.35483871,0,4177.09677419,0,4170.96774194,0,4119.67741935,0,0,0,?
2018-01-26 08:52:49.512000,4132.25806452,0,4211.29032258,0,4144.51612903,0,4171.93548387,0,4158.06451613,0,4123.5483871,0,4137.41935484,0,4170.96774194,0,4245.80645161,0,4275.48387097,0,4131.29032258,0,4188.06451613,0,4181.61290323,0,4145.16129032,0,0,0,?
2018-01-26 08:52:49.515000,4150.64516129,0,4217.09677419,0,4137.41935484,0,4142.25806452,0,4159.35483871,0,4123.87096774,0,4133.22580645,0,4178.70967742,0,4248.70967742,0,4264.83870968,0,4127.74193548,0,4187.09677419,0,4176.77419355,0,4126.12903226,0,0,0,?
2018-01-26 08:52:49.526000,4152.25806452,0,4211.29032258,0,4118.70967742,0,4166.12903226,0,4154.19354839,0,4101.61290323,0,4164.83870968,0,4169.35483871,0,4253.22580645,0,4262.90322581,0,4122.58064516,0,4178.06451613,0,4172.58064516,0,4117.09677419,0,0,0,?
2018-01-26 08:52:49.529000,4151.61290323,0,4213.5483871,0,4119.03225806,0,4162.58064516,0,4140.64516129,0,4109.67741935,0,4172.90322581,0,4172.58064516,0,4270.32258065,0,4266.4516129,0,4124.83870968,0,4187.09677419,0,4173.5483871,0,4116.12903226,0,0,0,?
2018-01-26 08:52:49.542000,4179.35483871,0,4225.48387097,0,4113.87096774,0,4130.0,0,4130.0,0,4134.51612903,0,4137.74193548,0,4172.58064516,0,4285.16129032,0,4247.74193548,0,4128.06451613,0,4190.32258065,0,4171.29032258,0,4134.19354839,0,0,0,?
2018-01-26 08:52:49.545000,4131.93548387,0,4205.48387097,0,4101.29032258,0,4151.29032258,0,4155.16129032,0,4120.64516129,0,4141.93548387,0,4182.90322581,0,4304.19354839,0,4244.19354839,0,4131.29032258,0,4180.64516129,0,4178.38709677,0,4107.74193548,0,0,0,?
2018-01-26 08:52:49.556000,4157.09677419,0,4216.4516129,0,4122.58064516,0,4138.38709677,0,4138.06451613,0,4104.83870968,0,4177.09677419,0,4171.29032258,0,4254.83870968,0,4242.58064516,0,4119.35483871,0,4173.5483871,0,4173.87096774,0,4129.35483871,0,0,0,?
2018-01-26 08:52:49.559000,4154.83870968,0,4223.22580645,0,4105.16129032,0,4114.19354839,0,4112.58064516,0,4119.35483871,0,4174.51612903,0,4160.64516129,0,4272.25806452,0,4242.25806452,0,4120.0,0,4182.25806452,0,4170.96774194,0,4116.12903226,0,0,0,?
2018-01-26 08:52:49.572000,4138.70967742,0,4205.16129032,0,4103.22580645,0,4101.29032258,0,4121.93548387,0,4130.64516129,0,4179.03225806,0,4163.22580645,0,4251.93548387,0,4240.0,0,4125.80645161,0,4183.22580645,0,4176.77419355,0,4112.90322581,0,0,0,?
2018-01-26 08:52:49.576000,4178.70967742,0,4223.87096774,0,4097.74193548,0,4118.06451613,0,4122.58064516,0,4122.25806452,0,4175.16129032,0,4153.87096774,0,4208.70967742,0,4227.09677419,0,4112.90322581,0,4170.96774194,0,4172.90322581,0,4139.35483871,0,0,0,?
2018-01-26 08:52:49.589000,4137.41935484,0,4236.4516129,0,4103.22580645,0,4128.70967742,0,4116.77419355,0,4110.96774194,0,4172.25806452,0,4149.67741935,0,4248.70967742,0,4235.80645161,0,4118.06451613,0,4177.09677419,0,4169.03225806,0,4108.06451613,0,0,0,?
2018-01-26 08:52:49.589000,4154.51612903,0,4236.4516129,0,4106.12903226,0,4100.32258065,0,4104.19354839,0,4119.67741935,0,4166.4516129,0,4143.87096774,0,4226.4516129,0,4238.06451613,0,4122.25806452,0,4179.67741935,0,4166.77419355,0,4125.16129032,0,0,0,?
2018-01-26 08:52:49.605000,4159.03225806,0,4230.32258065,0,4101.93548387,0,4105.48387097,0,4112.90322581,0,4130.32258065,0,4177.09677419,0,4156.12903226,0,4261.93548387,0,4232.90322581,0,4119.67741935,0,4181.93548387,0,4166.12903226,0,4122.58064516,0,0,0,?
2018-01-26 08:52:49.609000,4131.29032258,0,4227.09677419,0,4102.90322581,0,4132.25806452,0,4119.03225806,0,4130.96774194,0,4137.74193548,0,4170.64516129,0,4265.16129032,0,4243.5483871,0,4121.29032258,0,4188.70967742,0,4169.35483871,0,4118.06451613,0,0,0,?
2018-01-26 08:52:49.619000,4167.41935484,0,4249.67741935,0,4120.0,0,4100.64516129,0,4103.5483871,0,4131.29032258,0,4133.22580645,0,4160.32258065,0,4265.48387097,0,4248.06451613,0,4116.77419355,0,4177.09677419,0,4171.93548387,0,4145.48387097,0,0,0,?
2018-01-26 08:52:49.620000,4138.70967742,0,4262.58064516,0,4101.61290323,0,4123.87096774,0,4116.77419355,0,4132.90322581,0,4141.61290323,0,4169.03225806,0,4238.06451613,0,4249.35483871,0,4121.61290323,0,4172.25806452,0,4177.09677419,0,4116.4516129,0,0,0,?
2018-01-26 08:52:49.635000,4160.0,0,4232.25806452,0,4104.19354839,0,4111.93548387,0,4113.87096774,0,4141.29032258,0,4136.77419355,0,4164.19354839,0,4271.29032258,0,4239.67741935,0,4127.09677419,0,4175.80645161,0,4173.87096774,0,4140.32258065,0,0,0,?
2018-01-26 08:52:49.639000,4174.83870968,0,4237.09677419,0,4146.12903226,0,4090.96774194,0,4098.70967742,0,4134.51612903,0,4129.67741935,0,4155.80645161,0,4237.41935484,0,4246.4516129,0,4130.64516129,0,4174.19354839,0,4170.0,0,4148.38709677,0,0,0,?
2018-01-26 08:52:49.652000,4133.87096774,0,4270.64516129,0,4098.06451613,0,4114.19354839,0,4143.5483871,0,4119.67741935,0,4129.67741935,0,4151.61290323,0,4239.35483871,0,4258.38709677,0,4129.67741935,0,4171.61290323,0,4173.22580645,0,4128.06451613,0,0,0,?
2018-01-26 08:52:49.652000,4158.70967742,0,4275.80645161,0,4140.64516129,0,4105.80645161,0,4136.4516129,0,4123.5483871,0,4164.19354839,0,4174.83870968,0,4241.61290323,0,4235.48387097,0,4119.67741935,0,4172.90322581,0,4162.58064516,0,4150.64516129,0,0,0,?
2018-01-26 08:52:49.670000,4133.87096774,0,4267.41935484,0,4138.70967742,0,4093.22580645,0,4098.70967742,0,4123.5483871,0,4169.67741935,0,4177.41935484,0,4266.77419355,0,4229.03225806,0,4125.16129032,0,4175.48387097,0,4207.09677419,0,4126.77419355,0,0,0,?
2018-01-26 08:52:49.674000,4149.35483871,0,4231.29032258,0,4134.83870968,0,4077.41935484,0,4141.93548387,0,4122.58064516,0,4130.32258065,0,4132.90322581,0,4258.70967742,0,4229.67741935,0,4129.35483871,0,4161.61290323,0,4166.4516129,0,4139.03225806,0,0,0,?
2018-01-26 08:52:49.685000,4162.58064516,0,4255.16129032,0,4131.29032258,0,4066.77419355,0,4143.22580645,0,4138.38709677,0,4134.19354839,0,4130.96774194,0,4252.25806452,0,4228.38709677,0,4126.12903226,0,4155.48387097,0,4174.83870968,0,4141.29032258,0,0,0,?
2018-01-26 08:52:49.686000,4165.80645161,0,4243.5483871,0,4127.74193548,0,4066.77419355,0,4109.67741935,0,4096.77419355,0,4139.03225806,0,4131.93548387,0,4270.64516129,0,4241.29032258,0,4125.48387097,0,4156.4516129,0,4168.70967742,0,4121.61290323,0,0,0,?
2018-01-26 08:52:49.700000,4150.0,0,4245.16129032,0,4108.38709677,0,4070.32258065,0,4142.58064516,0,4134.83870968,0,4179.03225806,0,4161.93548387,0,4220.96774194,0,4234.19354839,0,4113.5483871,0,4147.09677419,0,4198.70967742,0,4147.09677419,0,0,0,?
2018-01-26 08:52:49.702000,4138.06451613,0,4249.35483871,0,4093.5483871,0,4104.19354839,0,4098.70967742,0,4130.96774194,0,4136.4516129,0,4171.29032258,0,4220.96774194,0,4244.51612903,0,4118.70967742,0,4150.0,0,4200.32258065,0,4125.48387097,0,0,0,?
2018-01-26 08:52:49.714000,4143.22580645,0,4260.64516129,0,4073.22580645,0,4093.87096774,0,4101.61290323,0,4143.87096774,0,4135.80645161,0,4136.12903226,0,4226.4516129,0,4257.41935484,0,4131.29032258,0,4145.80645161,0,4204.19354839,0,4148.06451613,0,0,0,?
2018-01-26 08:52:49.716000,4160.64516129,0,4266.77419355,0,4101.29032258,0,4076.12903226,0,4133.5483871,0,4137.41935484,0,4169.35483871,0,4129.67741935,0,4241.29032258,0,4243.5483871,0,4126.77419355,0,4144.19354839,0,4195.48387097,0,4158.70967742,0,0,0,?
2018-01-26 08:52:49.730000,4174.51612903,0,4250.0,0,4094.83870968,0,4092.25806452,0,4126.4516129,0,4130.32258065,0,4177.74193548,0,4137.74193548,0,4250.64516129,0,4237.74193548,0,4128.70967742,0,4160.0,0,4202.58064516,0,4122.25806452,0,0,0,?
2018-01-26 08:52:49.733000,4158.38709677,0,4253.87096774,0,4087.74193548,0,4104.83870968,0,4116.77419355,0,4138.70967742,0,4134.19354839,0,4144.83870968,0,4198.38709677,0,4233.22580645,0,4122.25806452,0,4154.51612903,0,4206.12903226,0,4153.22580645,0,0,0,?
2018-01-26 08:52:49.745000,4139.35483871,0,4257.74193548,0,4091.61290323,0,4091.93548387,0,4134.83870968,0,4139.35483871,0,4136.12903226,0,4156.77419355,0,4248.38709677,0,4243.87096774,0,4126.12903226,0,4150.64516129,0,4206.77419355,0,4142.90322581,0,0,0,?
2018-01-26 08:52:49.749000,4130.64516129,0,4261.93548387,0,4090.32258065,0,4073.87096774,0,4143.22580645,0,4146.12903226,0,4131.61290323,0,4149.35483871,0,4227.41935484,0,4251.61290323,0,4134.19354839,0,4160.64516129,0,4210.64516129,0,4144.19354839,0,0,0,?
2018-01-26 08:52:49.762000,4154.83870968,0,4264.83870968,0,4071.61290323,0,4087.74193548,0,4136.4516129,0,4099.35483871,0,4177.74193548,0,4136.4516129,0,4222.90322581,0,4242.90322581,0,4119.03225806,0,4159.67741935,0,4204.51612903,0,4156.4516129,0,0,0,?
2018-01-26 08:52:49.766000,4176.4516129,0,4256.12903226,0,4074.83870968,0,4088.38709677,0,4105.16129032,0,4102.58064516,0,4139.67741935,0,4154.19354839,0,4232.25806452,0,4250.0,0,4116.12903226,0,4162.58064516,0,4199.67741935,0,4145.80645161,0,0,0,?
2018-01-26 08:52:49.777000,4158.70967742,0,4273.87096774,0,4080.64516129,0,4110.96774194,0,4096.77419355,0,4107.74193548,0,4132.25806452,0,4150.64516129,0,4253.5483871,0,4244.19354839,0,4125.80645161,0,4162.58064516,0,4201.61290323,0,4175.16129032,0,0,0,?
2018-01-26 08:52:49.781000,4141.61290323,0,4273.87096774,0,4077.74193548,0,4068.38709677,0,4140.64516129,0,4096.77419355,0,4166.12903226,0,4140.96774194,0,4257.74193548,0,4236.12903226,0,4133.22580645,0,4159.03225806,0,4199.67741935,0,4144.83870968,0,0,0,?
2018-01-26 08:52:49.803000,4133.22580645,0,4282.90322581,0,4079.35483871,0,4113.87096774,0,4144.19354839,0,4145.80645161,0,4159.35483871,0,4139.35483871,0,4266.77419355,0,4232.25806452,0,4132.58064516,0,4154.83870968,0,4193.5483871,0,4152.58064516,0,0,0,?
2018-01-26 08:52:49.808000,4160.64516129,0,4267.41935484,0,4087.09677419,0,4061.29032258,0,4135.80645161,0,4112.58064516,0,4172.25806452,0,4146.77419355,0,4235.80645161,0,4232.58064516,0,4131.29032258,0,4157.41935484,0,4202.25806452,0,4133.22580645,0,0,0,?
2018-01-26 08:52:49.820000,4174.19354839,0,4306.77419355,0,4096.12903226,0,4050.64516129,0,4146.77419355,0,4113.22580645,0,4142.90322581,0,4164.83870968,0,4261.61290323,0,4244.83870968,0,4126.77419355,0,4169.67741935,0,4205.16129032,0,4149.67741935,0,0,0,?
2018-01-26 08:52:49.821000,4174.19354839,0,4306.77419355,0,4096.12903226,0,4050.64516129,0,4146.77419355,0,4113.22580645,0,4142.90322581,0,4164.83870968,0,4261.61290323,0,4244.83870968,0,4126.77419355,0,4169.67741935,0,4205.16129032,0,4149.67741935,0,0,0,?
2018-01-26 08:52:49.827000,4161.29032258,0,4300.64516129,0,4089.03225806,0,4068.38709677,0,4146.4516129,0,4106.4516129,0,4129.35483871,0,4148.70967742,0,4274.83870968,0,4231.61290323,0,4108.38709677,0,4164.19354839,0,4184.51612903,0,4174.83870968,0,0,0,?
2018-01-26 08:52:49.835000,4153.22580645,0,4303.87096774,0,4096.4516129,0,4066.77419355,0,4143.5483871,0,4113.22580645,0,4176.4516129,0,4146.4516129,0,4269.35483871,0,4274.83870968,0,4119.35483871,0,4158.06451613,0,4186.77419355,0,4169.67741935,0,0,0,?
2018-01-26 08:52:49.849000,4175.48387097,0,4303.87096774,0,4112.90322581,0,4093.22580645,0,4140.96774194,0,4120.96774194,0,4142.58064516,0,4158.38709677,0,4258.06451613,0,4228.38709677,0,4129.67741935,0,4157.41935484,0,4203.22580645,0,4161.29032258,0,0,0,?
2018-01-26 08:52:49.851000,4158.06451613,0,4261.61290323,0,4111.61290323,0,4109.03225806,0,4143.5483871,0,4122.90322581,0,4138.06451613,0,4150.96774194,0,4273.5483871,0,4273.87096774,0,4116.12903226,0,4148.38709677,0,4200.32258065,0,4130.64516129,0,0,0,?
2018-01-26 08:52:49.858000,4129.03225806,0,4259.35483871,0,4107.09677419,0,4090.0,0,4097.09677419,0,4119.03225806,0,4131.93548387,0,4154.19354839,0,4260.32258065,0,4229.67741935,0,4120.0,0,4141.93548387,0,4195.16129032,0,4156.12903226,0,0,0,?
2018-01-26 08:52:49.866000,4148.38709677,0,4269.35483871,0,4081.93548387,0,4088.06451613,0,4114.19354839,0,4110.32258065,0,4170.0,0,4136.77419355,0,4241.61290323,0,4267.41935484,0,4121.29032258,0,4130.0,0,4190.96774194,0,4176.4516129,0,0,0,?
2018-01-26 08:52:49.874000,4143.87096774,0,4267.09677419,0,4061.61290323,0,4105.16129032,0,4110.0,0,4101.93548387,0,4167.09677419,0,4168.38709677,0,4231.61290323,0,4254.83870968,0,4120.64516129,0,4176.4516129,0,4187.41935484,0,4164.19354839,0,0,0,?
2018-01-26 08:52:49.885000,4173.5483871,0,4262.58064516,0,4062.90322581,0,4100.0,0,4117.41935484,0,4103.22580645,0,4168.38709677,0,4172.90322581,0,4260.0,0,4260.64516129,0,4117.41935484,0,4130.96774194,0,4188.06451613,0,4148.38709677,0,0,0,?
2018-01-26 08:52:49.890000,4155.48387097,0,4267.74193548,0,4057.41935484,0,4080.96774194,0,4106.12903226,0,4109.67741935,0,4160.64516129,0,4168.70967742,0,4232.90322581,0,4258.06451613,0,4102.25806452,0,4129.67741935,0,4188.70967742,0,4169.35483871,0,0,0,?
2018-01-26 08:52:49.896000,4172.90322581,0,4260.0,0,4068.06451613,0,4104.83870968,0,4116.12903226,0,4107.09677419,0,4175.16129032,0,4130.96774194,0,4241.61290323,0,4265.80645161,0,4116.12903226,0,4136.12903226,0,4190.64516129,0,4152.25806452,0,0,0,?
2018-01-26 08:52:49.916000,4145.16129032,0,4275.80645161,0,4083.87096774,0,4072.90322581,0,4106.12903226,0,4112.58064516,0,4130.96774194,0,4138.38709677,0,4275.48387097,0,4268.38709677,0,4131.61290323,0,4136.77419355,0,4187.74193548,0,4133.87096774,0,0,0,?
2018-01-26 08:52:49.943000,4148.70967742,0,4271.61290323,0,4081.93548387,0,4048.70967742,0,4105.80645161,0,4123.5483871,0,4177.09677419,0,4136.4516129,0,4274.51612903,0,4268.70967742,0,4124.83870968,0,4131.29032258,0,4189.67741935,0,4177.74193548,0,0,0,?
2018-01-26 08:52:49.950000,4175.80645161,0,4302.25806452,0,4066.4516129,0,4087.74193548,0,4122.90322581,0,4127.74193548,0,4176.12903226,0,4173.22580645,0,4217.09677419,0,4260.32258065,0,4116.12903226,0,4130.64516129,0,4188.06451613,0,4153.22580645,0,0,0,?
2018-01-26 08:52:49.961000,4172.25806452,0,4264.19354839,0,4049.67741935,0,4076.12903226,0,4110.0,0,4124.19354839,0,4165.16129032,0,4153.5483871,0,4224.83870968,0,4230.96774194,0,4109.35483871,0,4177.09677419,0,4176.77419355,0,4175.48387097,0,0,0,?
2018-01-26 08:52:49.970000,4135.16129032,0,4305.16129032,0,4048.38709677,0,4068.06451613,0,4120.0,0,4129.35483871,0,4178.38709677,0,4129.03225806,0,4215.48387097,0,4228.06451613,0,4115.80645161,0,4138.70967742,0,4179.03225806,0,4151.61290323,0,0,0,?
2018-01-26 08:52:49.979000,4155.48387097,0,4269.67741935,0,4061.29032258,0,4079.35483871,0,4083.5483871,0,4126.4516129,0,4163.87096774,0,4155.16129032,0,4237.41935484,0,4214.83870968,0,4117.41935484,0,4130.0,0,4157.74193548,0,4168.38709677,0,0,0,?
2018-01-26 08:52:49.984000,4131.61290323,0,4270.64516129,0,4095.48387097,0,4071.61290323,0,4116.77419355,0,4139.03225806,0,4133.5483871,0,4130.32258065,0,4214.51612903,0,4224.51612903,0,4135.16129032,0,4140.32258065,0,4169.67741935,0,4165.16129032,0,0,0,?
2018-01-26 08:52:49.986000,4168.06451613,0,4282.90322581,0,4096.12903226,0,4046.12903226,0,4114.51612903,0,4162.25806452,0,4138.06451613,0,4135.80645161,0,4228.06451613,0,4222.90322581,0,4129.67741935,0,4132.90322581,0,4177.09677419,0,4155.16129032,0,0,0,?
2018-01-26 08:52:49.993000,4134.83870968,0,4272.25806452,0,4087.74193548,0,4080.0,0,4114.83870968,0,4165.80645161,0,4140.32258065,0,4141.61290323,0,4198.38709677,0,4234.19354839,0,4119.67741935,0,4132.58064516,0,4181.61290323,0,4171.93548387,0,0,0,?
2018-01-26 08:52:50.001000,4130.64516129,0,4274.83870968,0,4107.41935484,0,4057.41935484,0,4113.87096774,0,4154.19354839,0,4143.5483871,0,4144.51612903,0,4235.16129032,0,4229.03225806,0,4117.41935484,0,4135.80645161,0,4182.25806452,0,4172.58064516,0,0,0,?
2018-01-26 08:52:50.006000,4152.25806452,0,4294.51612903,0,4066.4516129,0,4074.51612903,0,4111.93548387,0,4156.4516129,0,4146.77419355,0,4141.93548387,0,4200.0,0,4206.77419355,0,4117.74193548,0,4145.48387097,0,4172.25806452,0,4139.67741935,0,0,0,?
2018-01-26 08:52:50.019000,4171.61290323,0,4282.25806452,0,4065.16129032,0,4077.09677419,0,4122.90322581,0,4163.22580645,0,4149.67741935,0,4143.5483871,0,4228.70967742,0,4217.09677419,0,4127.74193548,0,4154.51612903,0,4168.38709677,0,4173.5483871,0,0,0,?
2018-01-26 08:52:50.023000,4161.93548387,0,4291.29032258,0,4068.06451613,0,4056.77419355,0,4110.64516129,0,4154.83870968,0,4138.06451613,0,4132.58064516,0,4237.09677419,0,4218.38709677,0,4123.87096774,0,4153.22580645,0,4165.80645161,0,4153.5483871,0,0,0,?
2018-01-26 08:52:50.035000,4141.93548387,0,4323.5483871,0,4069.67741935,0,4056.12903226,0,4106.12903226,0,4140.96774194,0,4140.0,0,4140.96774194,0,4206.12903226,0,4210.96774194,0,4119.67741935,0,4157.74193548,0,4171.29032258,0,4178.70967742,0,0,0,?
2018-01-26 08:52:50.037000,4130.96774194,0,4306.4516129,0,4101.61290323,0,4036.77419355,0,4104.51612903,0,4145.16129032,0,4141.29032258,0,4141.29032258,0,4237.09677419,0,4210.32258065,0,4122.25806452,0,4148.70967742,0,4177.09677419,0,4178.06451613,0,0,0,?
2018-01-26 08:52:50.052000,4160.96774194,0,4313.87096774,0,4078.38709677,0,4081.61290323,0,4104.19354839,0,4159.03225806,0,4140.96774194,0,4136.12903226,0,4219.67741935,0,4211.29032258,0,4122.25806452,0,4144.19354839,0,4179.03225806,0,4147.41935484,0,0,0,?
2018-01-26 08:52:50.053000,4177.09677419,0,4300.32258065,0,4083.22580645,0,4069.35483871,0,4117.09677419,0,4169.67741935,0,4157.41935484,0,4159.67741935,0,4196.12903226,0,4213.87096774,0,4127.09677419,0,4162.58064516,0,4180.0,0,4178.38709677,0,0,0,?
2018-01-26 08:52:50.077000,4150.32258065,0,4326.4516129,0,4102.58064516,0,4053.5483871,0,4110.32258065,0,4169.35483871,0,4151.29032258,0,4162.25806452,0,4199.67741935,0,4197.09677419,0,4127.74193548,0,4151.61290323,0,4169.35483871,0,4160.96774194,0,0,0,?
2018-01-26 08:52:50.084000,4139.35483871,0,4330.96774194,0,4080.32258065,0,4049.35483871,0,4130.0,0,4164.19354839,0,4145.80645161,0,4158.06451613,0,4193.5483871,0,4233.22580645,0,4129.03225806,0,4178.06451613,0,4167.09677419,0,4148.06451613,0,0,0,?
2018-01-26 08:52:50.091000,4133.5483871,0,4307.74193548,0,4079.67741935,0,4065.80645161,0,4141.61290323,0,4178.70967742,0,4147.41935484,0,4146.77419355,0,4195.80645161,0,4209.67741935,0,4113.5483871,0,4178.70967742,0,4169.03225806,0,4139.03225806,0,0,0,?
2018-01-26 08:52:50.095000,4161.93548387,0,4309.67741935,0,4068.38709677,0,4061.93548387,0,4118.38709677,0,4133.5483871,0,4140.64516129,0,4179.03225806,0,4209.35483871,0,4183.87096774,0,4145.80645161,0,4130.96774194,0,4162.25806452,0,4150.32258065,0,0,0,?
2018-01-26 08:52:50.125000,4170.96774194,0,4301.93548387,0,4089.03225806,0,4059.67741935,0,4116.4516129,0,4165.48387097,0,4146.4516129,0,4141.93548387,0,4201.61290323,0,4201.61290323,0,4111.61290323,0,4129.03225806,0,4170.64516129,0,4134.19354839,0,0,0,?
2018-01-26 08:52:50.135000,4148.06451613,0,4290.32258065,0,4088.38709677,0,4067.74193548,0,4103.22580645,0,4166.77419355,0,4140.64516129,0,4133.87096774,0,4171.93548387,0,4205.16129032,0,4111.29032258,0,4171.61290323,0,4172.25806452,0,4172.58064516,0,0,0,?
2018-01-26 08:52:50.142000,4147.74193548,0,4333.22580645,0,4082.58064516,0,4068.70967742,0,4099.67741935,0,4172.90322581,0,4132.58064516,0,4167.41935484,0,4180.64516129,0,4179.67741935,0,4099.03225806,0,4170.64516129,0,4159.67741935,0,4151.29032258,0,0,0,?
2018-01-26 08:52:50.145000,4134.83870968,0,4292.58064516,0,4100.96774194,0,4057.41935484,0,4108.70967742,0,4165.80645161,0,4140.0,0,4176.12903226,0,4201.29032258,0,4207.09677419,0,4106.77419355,0,4170.96774194,0,4162.25806452,0,4133.22580645,0,0,0,?
2018-01-26 08:52:50.151000,4170.32258065,0,4295.80645161,0,4114.83870968,0,4050.32258065,0,4103.87096774,0,4165.16129032,0,4137.74193548,0,4130.96774194,0,4192.58064516,0,4192.25806452,0,4105.48387097,0,4166.12903226,0,4169.03225806,0,4165.80645161,0,0,0,?
2018-01-26 08:52:50.158000,4173.5483871,0,4310.32258065,0,4113.5483871,0,4047.74193548,0,4110.64516129,0,4165.48387097,0,4173.5483871,0,4168.06451613,0,4152.90322581,0,4199.35483871,0,4144.19354839,0,4163.87096774,0,4163.5483871,0,4144.19354839,0,0,0,?
2018-01-26 08:52:50.166000,4132.90322581,0,4307.09677419,0,4095.48387097,0,4036.12903226,0,4099.35483871,0,4167.41935484,0,4157.41935484,0,4139.67741935,0,4165.80645161,0,4198.06451613,0,4137.09677419,0,4152.25806452,0,4152.25806452,0,4156.12903226,0,0,0,?
2018-01-26 08:52:50.172000,4142.90322581,0,4319.03225806,0,4103.5483871,0,4073.87096774,0,4095.16129032,0,4169.35483871,0,4178.06451613,0,4156.4516129,0,4150.32258065,0,4161.29032258,0,4098.70967742,0,4157.74193548,0,4159.03225806,0,4147.74193548,0,0,0,?
2018-01-26 08:52:50.183000,4176.77419355,0,4314.51612903,0,4127.74193548,0,4074.51612903,0,4103.22580645,0,4164.83870968,0,4145.48387097,0,4132.58064516,0,4155.16129032,0,4187.74193548,0,4104.19354839,0,4174.83870968,0,4170.64516129,0,4141.61290323,0,0,0,?
2018-01-26 08:52:50.188000,4161.61290323,0,4319.03225806,0,4121.29032258,0,4035.48387097,0,4102.58064516,0,4160.32258065,0,4173.5483871,0,4157.09677419,0,4140.0,0,4182.25806452,0,4142.90322581,0,4170.96774194,0,4169.35483871,0,4168.38709677,0,0,0,?
2018-01-26 08:52:50.196000,4135.48387097,0,4304.83870968,0,4116.12903226,0,4057.09677419,0,4120.0,0,4168.70967742,0,4174.19354839,0,4155.80645161,0,4140.0,0,4186.4516129,0,4100.32258065,0,4165.80645161,0,4169.35483871,0,4146.12903226,0,0,0,?
2018-01-26 08:52:50.203000,4147.41935484,0,4303.22580645,0,4132.90322581,0,4051.29032258,0,4113.87096774,0,4134.83870968,0,4135.80645161,0,4170.32258065,0,4190.32258065,0,4198.70967742,0,4101.61290323,0,4164.19354839,0,4169.03225806,0,4163.22580645,0,0,0,?
2018-01-26 08:52:50.216000,4142.25806452,0,4309.03225806,0,4143.87096774,0,4057.09677419,0,4104.51612903,0,4138.06451613,0,4140.0,0,4169.03225806,0,4143.87096774,0,4193.5483871,0,4100.0,0,4163.5483871,0,4170.64516129,0,4158.70967742,0,0,0,?
2018-01-26 08:52:50.220000,4176.77419355,0,4309.67741935,0,4132.25806452,0,4042.58064516,0,4105.48387097,0,4136.77419355,0,4137.74193548,0,4151.61290323,0,4166.12903226,0,4164.83870968,0,4108.06451613,0,4159.03225806,0,4159.35483871,0,4153.87096774,0,0,0,?
2018-01-26 08:52:50.229000,4173.22580645,0,4320.0,0,4121.93548387,0,4055.48387097,0,4091.29032258,0,4132.90322581,0,4178.38709677,0,4135.16129032,0,4163.22580645,0,4187.74193548,0,4101.61290323,0,4147.41935484,0,4144.19354839,0,4183.22580645,0,0,0,?
2018-01-26 08:52:50.235000,4176.77419355,0,4293.5483871,0,4121.93548387,0,4039.03225806,0,4102.25806452,0,4175.48387097,0,4142.25806452,0,4154.83870968,0,4158.38709677,0,4204.19354839,0,4100.64516129,0,4152.90322581,0,4164.19354839,0,4142.25806452,0,0,0,?
2018-01-26 08:52:50.243000,4132.90322581,0,4278.70967742,0,4107.41935484,0,4054.19354839,0,4097.41935484,0,4131.93548387,0,4144.83870968,0,4144.51612903,0,4128.38709677,0,4210.32258065,0,4146.77419355,0,4159.35483871,0,4169.35483871,0,4148.38709677,0,0,0,?
2018-01-26 08:52:50.251000,4162.90322581,0,4276.77419355,0,4100.64516129,0,4035.48387097,0,4081.93548387,0,4140.96774194,0,4137.09677419,0,4113.5483871,0,4124.51612903,0,4196.77419355,0,4137.41935484,0,4148.38709677,0,4151.29032258,0,4155.48387097,0,0,0,?
2018-01-26 08:52:50.259000,4175.16129032,0,4306.77419355,0,4111.93548387,0,4034.51612903,0,4091.93548387,0,4139.03225806,0,4139.03225806,0,4119.67741935,0,4145.80645161,0,4206.77419355,0,4142.90322581,0,4140.64516129,0,4149.35483871,0,4139.35483871,0,0,0,?
2018-01-26 08:52:50.269000,4152.90322581,0,4270.0,0,4114.83870968,0,4059.35483871,0,4096.4516129,0,4131.93548387,0,4178.38709677,0,4122.90322581,0,4146.12903226,0,4171.29032258,0,4098.06451613,0,4145.80645161,0,4153.87096774,0,4172.90322581,0,0,0,?
2018-01-26 08:52:50.275000,4134.51612903,0,4270.96774194,0,4130.64516129,0,4062.25806452,0,4102.90322581,0,4174.83870968,0,4131.93548387,0,4128.38709677,0,4145.80645161,0,4182.58064516,0,4101.93548387,0,4161.61290323,0,4155.80645161,0,4154.19354839,0,0,0,?
2018-01-26 08:52:50.284000,4140.0,0,4262.25806452,0,4138.70967742,0,4081.29032258,0,4098.70967742,0,4134.19354839,0,4139.67741935,0,4131.61290323,0,4162.25806452,0,4210.96774194,0,4100.64516129,0,4158.38709677,0,4155.80645161,0,4157.09677419,0,0,0,?
2018-01-26 08:52:50.290000,4159.35483871,0,4263.5483871,0,4124.51612903,0,4041.61290323,0,4101.93548387,0,4150.64516129,0,4140.32258065,0,4132.90322581,0,4158.38709677,0,4191.61290323,0,4100.32258065,0,4146.4516129,0,4158.70967742,0,4164.51612903,0,0,0,?
2018-01-26 08:52:50.303000,4169.35483871,0,4301.29032258,0,4127.41935484,0,4056.77419355,0,4118.06451613,0,4143.87096774,0,4141.29032258,0,4137.09677419,0,4158.70967742,0,4172.90322581,0,4107.09677419,0,4147.74193548,0,4155.16129032,0,4157.09677419,0,0,0,?
2018-01-26 08:52:50.309000,4145.48387097,0,4304.19354839,0,4135.80645161,0,4039.67741935,0,4110.96774194,0,4143.22580645,0,4134.51612903,0,4124.83870968,0,4134.83870968,0,4184.83870968,0,4101.93548387,0,4137.41935484,0,4146.12903226,0,4198.70967742,0,0,0,?
2018-01-26 08:52:50.317000,4132.25806452,0,4258.70967742,0,4145.48387097,0,4040.64516129,0,4119.67741935,0,4154.51612903,0,4142.25806452,0,4135.16129032,0,4153.22580645,0,4170.0,0,4109.67741935,0,4134.19354839,0,4153.87096774,0,4174.83870968,0,0,0,?
2018-01-26 08:52:50.322000,4136.12903226,0,4270.32258065,0,4103.5483871,0,4038.70967742,0,4123.87096774,0,4155.80645161,0,4148.38709677,0,4144.83870968,0,4159.35483871,0,4168.06451613,0,4120.0,0,4137.41935484,0,4161.93548387,0,4177.41935484,0,0,0,?
2018-01-26 08:52:50.329000,4156.12903226,0,4278.06451613,0,4106.4516129,0,4035.80645161,0,4115.80645161,0,4144.51612903,0,4147.74193548,0,4135.48387097,0,4144.83870968,0,4181.61290323,0,4111.61290323,0,4134.19354839,0,4159.03225806,0,4197.09677419,0,0,0,?
2018-01-26 08:52:50.337000,4167.74193548,0,4262.90322581,0,4100.0,0,4055.16129032,0,4109.03225806,0,4133.87096774,0,4152.58064516,0,4136.77419355,0,4158.06451613,0,4194.83870968,0,4104.19354839,0,4139.67741935,0,4154.19354839,0,4167.09677419,0,0,0,?
2018-01-26 08:52:50.346000,4151.29032258,0,4264.83870968,0,4129.03225806,0,4047.09677419,0,4093.22580645,0,4138.38709677,0,4136.77419355,0,4127.74193548,0,4120.96774194,0,4168.38709677,0,4146.77419355,0,4136.12903226,0,4146.77419355,0,4176.4516129,0,0,0,?
2018-01-26 08:52:50.354000,4140.64516129,0,4308.06451613,0,4097.41935484,0,4071.29032258,0,4124.19354839,0,4155.16129032,0,4139.67741935,0,4138.06451613,0,4130.32258065,0,4205.48387097,0,4104.83870968,0,4132.90322581,0,4148.06451613,0,4160.96774194,0,0,0,?
2018-01-26 08:52:50.360000,4130.96774194,0,4300.64516129,0,4118.38709677,0,4086.4516129,0,4136.77419355,0,4174.51612903,0,4153.22580645,0,4153.87096774,0,4170.32258065,0,4165.16129032,0,4108.38709677,0,4134.51612903,0,4151.29032258,0,4180.32258065,0,0,0,?
2018-01-26 08:52:50.368000,4150.32258065,0,4296.4516129,0,4134.83870968,0,4049.03225806,0,4107.41935484,0,4168.06451613,0,4145.80645161,0,4146.77419355,0,4131.93548387,0,4165.48387097,0,4097.74193548,0,4131.61290323,0,4151.29032258,0,4196.4516129,0,0,0,?
2018-01-26 08:52:50.377000,4158.38709677,0,4280.96774194,0,4119.03225806,0,4054.19354839,0,4114.51612903,0,4154.19354839,0,4148.70967742,0,4149.03225806,0,4142.90322581,0,4175.16129032,0,4106.12903226,0,4136.12903226,0,4154.19354839,0,4151.29032258,0,0,0,?
2018-01-26 08:52:50.400000,4143.5483871,0,4297.09677419,0,4139.03225806,0,4048.70967742,0,4119.03225806,0,4163.87096774,0,4149.35483871,0,4144.51612903,0,4156.77419355,0,4172.25806452,0,4107.41935484,0,4134.83870968,0,4150.96774194,0,4174.83870968,0,0,0,?
2018-01-26 08:52:50.401000,4143.87096774,0,4290.32258065,0,4144.51612903,0,4022.90322581,0,4126.77419355,0,4165.48387097,0,4154.51612903,0,4154.51612903,0,4168.06451613,0,4172.25806452,0,4104.83870968,0,4138.38709677,0,4156.12903226,0,4173.5483871,0,0,0,?
2018-01-26 08:52:50.413000,4177.41935484,0,4264.83870968,0,4122.25806452,0,4068.38709677,0,4129.67741935,0,4156.4516129,0,4154.51612903,0,4155.16129032,0,4137.74193548,0,4177.09677419,0,4108.70967742,0,4141.61290323,0,4154.83870968,0,4173.87096774,0,0,0,?
2018-01-26 08:52:50.419000,4153.22580645,0,4275.80645161,0,4112.25806452,0,4048.38709677,0,4114.83870968,0,4157.74193548,0,4143.87096774,0,4134.19354839,0,4134.51612903,0,4163.5483871,0,4107.41935484,0,4140.96774194,0,4145.80645161,0,4189.35483871,0,0,0,?
2018-01-26 08:52:50.434000,4167.41935484,0,4280.96774194,0,4137.41935484,0,4082.90322581,0,4131.61290323,0,4170.96774194,0,4154.83870968,0,4135.48387097,0,4158.70967742,0,4210.32258065,0,4110.96774194,0,4150.32258065,0,4151.61290323,0,4164.51612903,0,0,0,?
2018-01-26 08:52:50.435000,4147.09677419,0,4285.16129032,0,4103.22580645,0,4082.90322581,0,4131.61290323,0,4172.90322581,0,4157.09677419,0,4135.48387097,0,4158.70967742,0,4166.77419355,0,4107.09677419,0,4145.48387097,0,4150.32258065,0,4196.12903226,0,0,0,?
2018-01-26 08:52:50.451000,4146.4516129,0,4286.4516129,0,4114.19354839,0,4107.74193548,0,4140.0,0,4163.5483871,0,4150.96774194,0,4145.80645161,0,4148.06451613,0,4186.12903226,0,4106.12903226,0,4139.03225806,0,4146.4516129,0,4188.38709677,0,0,0,?
2018-01-26 08:52:50.451000,4169.03225806,0,4281.29032258,0,4112.25806452,0,4090.0,0,4136.12903226,0,4167.41935484,0,4149.35483871,0,4156.12903226,0,4140.0,0,4184.51612903,0,4109.35483871,0,4137.41935484,0,4145.16129032,0,4177.09677419,0,0,0,?
2018-01-26 08:52:50.459000,4150.96774194,0,4277.09677419,0,4097.41935484,0,4067.41935484,0,4115.16129032,0,4173.5483871,0,4146.77419355,0,4135.80645161,0,4152.90322581,0,4209.03225806,0,4101.29032258,0,4133.22580645,0,4138.38709677,0,4199.03225806,0,0,0,?
2018-01-26 08:52:50.466000,4178.70967742,0,4256.77419355,0,4100.96774194,0,4094.19354839,0,4125.48387097,0,4165.80645161,0,4151.93548387,0,4140.0,0,4149.67741935,0,4163.5483871,0,4100.64516129,0,4138.70967742,0,4140.64516129,0,4171.61290323,0,0,0,?
2018-01-26 08:52:50.476000,4153.5483871,0,4266.77419355,0,4145.80645161,0,4081.61290323,0,4125.48387097,0,4169.67741935,0,4149.03225806,0,4145.16129032,0,4151.93548387,0,4162.25806452,0,4099.35483871,0,4139.35483871,0,4140.64516129,0,4191.93548387,0,0,0,?
2018-01-26 08:52:50.480000,4151.93548387,0,4270.96774194,0,4139.35483871,0,4056.4516129,0,4121.61290323,0,4175.16129032,0,4152.90322581,0,4147.41935484,0,4146.4516129,0,4204.51612903,0,4101.29032258,0,4137.74193548,0,4141.29032258,0,4189.35483871,0,0,0,?
2018-01-26 08:52:50.490000,4171.29032258,0,4252.25806452,0,4141.93548387,0,4062.90322581,0,4122.25806452,0,4170.0,0,4154.51612903,0,4152.90322581,0,4162.90322581,0,4165.48387097,0,4104.19354839,0,4129.03225806,0,4146.77419355,0,4170.64516129,0,0,0,?
2018-01-26 08:52:50.495000,4153.5483871,0,4256.77419355,0,4144.83870968,0,4070.0,0,4118.06451613,0,4186.4516129,0,4145.16129032,0,4148.70967742,0,4175.16129032,0,4166.4516129,0,4099.35483871,0,4126.12903226,0,4140.64516129,0,4189.03225806,0,0,0,?
2018-01-26 08:52:50.508000,4172.25806452,0,4252.58064516,0,4101.29032258,0,4077.74193548,0,4130.32258065,0,4195.48387097,0,4155.80645161,0,4153.5483871,0,4129.67741935,0,4164.51612903,0,4105.16129032,0,4133.22580645,0,4133.22580645,0,4173.5483871,0,0,0,?
