Timestamp,F3 Value,F3 Quality,FC5 Value,FC5 Quality,F7 Value,F7 Quality,T7 Value,T7 Quality,P7 Value,P7 Quality,O1 Value,O1 Quality,O2 Value,O2 Quality,P8 Value,P8 Quality,T8 Value,T8 Quality,F8 Value,F8 Quality,AF4 Value,AF4 Quality,FC6 Value,FC6 Quality,F4 Value,F4 Quality,AF3 Value,AF3 Quality,X Value,Y Value,Z Value
2018-01-30 09:38:30,4120.0,0,4136.77419355,0,4170.32258065,0,4229.03225806,0,4454.19354839,0,4254.83870968,0,4235.80645161,0,4389.67741935,0,4273.5483871,0,4258.06451613,0,4210.32258065,0,4378.38709677,0,4333.5483871,0,4204.83870968,0,0,0,?
2018-01-30 09:38:30.004000,4201.61290323,0,4168.70967742,0,4178.38709677,0,4210.32258065,0,4461.29032258,0,4268.06451613,0,4250.0,0,4361.61290323,0,4238.70967742,0,4273.87096774,0,4183.87096774,0,4385.48387097,0,4340.0,0,4169.35483871,0,0,0,?
2018-01-30 09:38:30.018000,4145.16129032,0,4146.12903226,0,4208.38709677,0,4254.19354839,0,4445.48387097,0,4264.51612903,0,4250.0,0,4420.64516129,0,4210.64516129,0,4244.83870968,0,4167.09677419,0,4374.51612903,0,4337.74193548,0,4192.25806452,0,0,0,?
2018-01-30 09:38:30.020000,4175.16129032,0,4146.12903226,0,4172.25806452,0,4240.32258065,0,4465.80645161,0,4257.09677419,0,4274.19354839,0,4407.74193548,0,4260.64516129,0,4246.12903226,0,4201.61290323,0,4371.29032258,0,4306.12903226,0,4207.09677419,0,0,0,?
2018-01-30 09:38:30.031000,4181.61290323,0,4169.67741935,0,4157.41935484,0,4229.67741935,0,4467.09677419,0,4247.74193548,0,4231.93548387,0,4351.61290323,0,4231.93548387,0,4240.96774194,0,4165.80645161,0,4355.48387097,0,4310.0,0,4182.25806452,0,0,0,?
2018-01-30 09:38:30.035000,4131.61290323,0,4155.80645161,0,4203.5483871,0,4244.51612903,0,4471.61290323,0,4277.09677419,0,4331.29032258,0,4386.4516129,0,4203.22580645,0,4230.96774194,0,4214.51612903,0,4354.51612903,0,4333.5483871,0,4224.83870968,0,0,0,?
2018-01-30 09:38:30.047000,4196.4516129,0,4178.06451613,0,4172.25806452,0,4224.51612903,0,4477.09677419,0,4307.41935484,0,4303.87096774,0,4400.32258065,0,4229.67741935,0,4229.35483871,0,4197.74193548,0,4336.12903226,0,4335.48387097,0,4221.93548387,0,0,0,?
2018-01-30 09:38:30.051000,4150.96774194,0,4161.61290323,0,4173.87096774,0,4215.80645161,0,4467.74193548,0,4283.87096774,0,4294.83870968,0,4412.25806452,0,4276.77419355,0,4247.41935484,0,4170.64516129,0,4355.80645161,0,4332.25806452,0,4190.64516129,0,0,0,?
2018-01-30 09:38:30.063000,4158.38709677,0,4174.83870968,0,4223.87096774,0,4223.87096774,0,4467.74193548,0,4279.67741935,0,4316.12903226,0,4426.77419355,0,4258.70967742,0,4244.83870968,0,4223.87096774,0,4340.32258065,0,4296.4516129,0,4205.80645161,0,0,0,?
2018-01-30 09:38:30.067000,4174.19354839,0,4184.83870968,0,4196.4516129,0,4225.48387097,0,4466.12903226,0,4266.4516129,0,4326.4516129,0,4434.83870968,0,4210.64516129,0,4246.12903226,0,4202.25806452,0,4334.19354839,0,4291.29032258,0,4234.83870968,0,0,0,?
2018-01-30 09:38:30.079000,4097.41935484,0,4141.61290323,0,4176.77419355,0,4236.12903226,0,4437.74193548,0,4244.83870968,0,4302.90322581,0,4429.67741935,0,4198.38709677,0,4211.61290323,0,4174.51612903,0,4311.29032258,0,4282.58064516,0,4182.25806452,0,0,0,?
2018-01-30 09:38:30.083000,4174.19354839,0,4203.5483871,0,4170.96774194,0,4208.06451613,0,4450.64516129,0,4297.09677419,0,4320.32258065,0,4433.87096774,0,4226.4516129,0,4229.67741935,0,4231.29032258,0,4319.03225806,0,4312.90322581,0,4228.70967742,0,0,0,?
2018-01-30 09:38:30.093000,4165.80645161,0,4203.87096774,0,4182.58064516,0,4244.51612903,0,4441.93548387,0,4275.80645161,0,4336.4516129,0,4427.74193548,0,4241.29032258,0,4262.58064516,0,4204.51612903,0,4372.25806452,0,4330.64516129,0,4244.19354839,0,0,0,?
2018-01-30 09:38:30.098000,4127.41935484,0,4162.90322581,0,4180.96774194,0,4214.83870968,0,4394.19354839,0,4254.51612903,0,4327.09677419,0,4400.64516129,0,4195.48387097,0,4200.32258065,0,4186.77419355,0,4338.70967742,0,4300.0,0,4208.70967742,0,0,0,?
2018-01-30 09:38:30.111000,4166.12903226,0,4196.4516129,0,4193.22580645,0,4164.19354839,0,4422.25806452,0,4245.80645161,0,4326.12903226,0,4373.5483871,0,4189.03225806,0,4216.4516129,0,4181.93548387,0,4348.70967742,0,4326.12903226,0,4211.61290323,0,0,0,?
2018-01-30 09:38:30.114000,4106.4516129,0,4180.32258065,0,4208.06451613,0,4197.74193548,0,4430.32258065,0,4280.0,0,4342.90322581,0,4416.4516129,0,4254.83870968,0,4216.4516129,0,4200.64516129,0,4367.41935484,0,4296.12903226,0,4207.09677419,0,0,0,?
2018-01-30 09:38:30.126000,4161.93548387,0,4182.25806452,0,4172.58064516,0,4198.70967742,0,4431.93548387,0,4251.93548387,0,4332.58064516,0,4368.38709677,0,4211.61290323,0,4223.5483871,0,4197.74193548,0,4349.35483871,0,4321.93548387,0,4195.80645161,0,0,0,?
2018-01-30 09:38:30.130000,4173.5483871,0,4184.83870968,0,4190.64516129,0,4225.80645161,0,4420.64516129,0,4252.58064516,0,4340.64516129,0,4364.51612903,0,4236.77419355,0,4237.74193548,0,4204.19354839,0,4330.32258065,0,4269.67741935,0,4222.90322581,0,0,0,?
2018-01-30 09:38:30.142000,4140.96774194,0,4184.83870968,0,4189.67741935,0,4195.48387097,0,4419.67741935,0,4259.67741935,0,4355.16129032,0,4398.70967742,0,4242.25806452,0,4240.32258065,0,4214.83870968,0,4344.51612903,0,4273.5483871,0,4230.96774194,0,0,0,?
2018-01-30 09:38:30.147000,4196.77419355,0,4191.93548387,0,4168.06451613,0,4208.70967742,0,4415.80645161,0,4269.67741935,0,4340.96774194,0,4322.90322581,0,4179.03225806,0,4209.03225806,0,4162.90322581,0,4328.06451613,0,4292.25806452,0,4203.22580645,0,0,0,?
2018-01-30 09:38:30.158000,4120.96774194,0,4170.32258065,0,4133.5483871,0,4180.96774194,0,4432.90322581,0,4272.25806452,0,4345.16129032,0,4338.06451613,0,4202.58064516,0,4207.41935484,0,4173.22580645,0,4289.35483871,0,4285.48387097,0,4156.12903226,0,0,0,?
2018-01-30 09:38:30.161000,4161.61290323,0,4167.41935484,0,4190.96774194,0,4177.09677419,0,4420.0,0,4281.93548387,0,4344.51612903,0,4357.74193548,0,4222.58064516,0,4239.03225806,0,4162.90322581,0,4286.12903226,0,4299.03225806,0,4209.35483871,0,0,0,?
2018-01-30 09:38:30.175000,4134.51612903,0,4202.90322581,0,4158.38709677,0,4182.25806452,0,4394.19354839,0,4265.48387097,0,4359.35483871,0,4393.5483871,0,4190.0,0,4229.35483871,0,4143.22580645,0,4280.0,0,4300.0,0,4158.38709677,0,0,0,?
2018-01-30 09:38:30.177000,4119.35483871,0,4164.51612903,0,4177.41935484,0,4204.83870968,0,4422.25806452,0,4235.16129032,0,4391.61290323,0,4374.51612903,0,4190.32258065,0,4206.77419355,0,4167.09677419,0,4271.29032258,0,4266.4516129,0,4129.35483871,0,0,0,?
2018-01-30 09:38:30.195000,4198.70967742,0,4209.03225806,0,4177.09677419,0,4138.06451613,0,4429.03225806,0,4258.38709677,0,4387.41935484,0,4341.61290323,0,4186.12903226,0,4204.83870968,0,4160.0,0,4293.87096774,0,4281.93548387,0,4176.12903226,0,0,0,?
2018-01-30 09:38:30.196000,4135.16129032,0,4182.25806452,0,4165.48387097,0,4205.16129032,0,4434.19354839,0,4262.58064516,0,4360.64516129,0,4373.5483871,0,4182.58064516,0,4226.12903226,0,4137.09677419,0,4297.74193548,0,4278.70967742,0,4155.48387097,0,0,0,?
2018-01-30 09:38:30.205000,4147.41935484,0,4178.38709677,0,4156.12903226,0,4181.93548387,0,4410.0,0,4261.61290323,0,4394.51612903,0,4335.80645161,0,4189.67741935,0,4232.90322581,0,4153.5483871,0,4276.77419355,0,4299.35483871,0,4137.74193548,0,0,0,?
2018-01-30 09:38:30.209000,4151.61290323,0,4194.19354839,0,4126.4516129,0,4170.0,0,4388.70967742,0,4247.09677419,0,4415.16129032,0,4338.70967742,0,4196.4516129,0,4226.4516129,0,4169.35483871,0,4262.58064516,0,4285.48387097,0,4135.16129032,0,0,0,?
2018-01-30 09:38:30.222000,4125.16129032,0,4174.51612903,0,4168.06451613,0,4164.83870968,0,4385.80645161,0,4272.90322581,0,4402.25806452,0,4323.22580645,0,4164.19354839,0,4203.87096774,0,4156.4516129,0,4272.58064516,0,4260.96774194,0,4145.80645161,0,0,0,?
2018-01-30 09:38:30.224000,4192.58064516,0,4201.29032258,0,4133.87096774,0,4189.03225806,0,4403.87096774,0,4257.09677419,0,4390.96774194,0,4325.48387097,0,4153.87096774,0,4243.5483871,0,4171.93548387,0,4264.83870968,0,4300.64516129,0,4173.5483871,0,0,0,?
2018-01-30 09:38:30.236000,4127.41935484,0,4182.25806452,0,4184.83870968,0,4177.74193548,0,4409.35483871,0,4276.77419355,0,4410.32258065,0,4367.09677419,0,4203.22580645,0,4211.93548387,0,4154.83870968,0,4297.41935484,0,4245.80645161,0,4202.90322581,0,0,0,?
2018-01-30 09:38:30.240000,4135.16129032,0,4176.4516129,0,4167.41935484,0,4120.96774194,0,4375.16129032,0,4258.38709677,0,4433.5483871,0,4339.35483871,0,4185.80645161,0,4210.64516129,0,4156.4516129,0,4301.29032258,0,4264.83870968,0,4185.80645161,0,0,0,?
2018-01-30 09:38:30.252000,4172.90322581,0,4182.58064516,0,4161.93548387,0,4097.09677419,0,4387.09677419,0,4260.96774194,0,4422.25806452,0,4328.38709677,0,4140.32258065,0,4230.0,0,4172.58064516,0,4302.25806452,0,4252.25806452,0,4184.19354839,0,0,0,?
2018-01-30 09:38:30.256000,4118.38709677,0,4165.80645161,0,4204.51612903,0,4198.06451613,0,4433.22580645,0,4277.41935484,0,4429.67741935,0,4375.16129032,0,4205.80645161,0,4226.12903226,0,4170.96774194,0,4280.32258065,0,4240.64516129,0,4224.19354839,0,0,0,?
2018-01-30 09:38:30.268000,4192.25806452,0,4190.0,0,4178.70967742,0,4183.87096774,0,4421.29032258,0,4280.0,0,4468.06451613,0,4355.80645161,0,4175.48387097,0,4211.29032258,0,4195.80645161,0,4318.38709677,0,4303.87096774,0,4206.12903226,0,0,0,?
2018-01-30 09:38:30.274000,4154.19354839,0,4150.64516129,0,4140.0,0,4140.64516129,0,4355.48387097,0,4230.0,0,4420.32258065,0,4331.93548387,0,4138.06451613,0,4212.25806452,0,4142.90322581,0,4266.4516129,0,4275.16129032,0,4172.25806452,0,0,0,?
2018-01-30 09:38:30.283000,4129.67741935,0,4142.25806452,0,4135.48387097,0,4083.22580645,0,4376.4516129,0,4228.06451613,0,4426.77419355,0,4322.58064516,0,4106.4516129,0,4190.0,0,4149.03225806,0,4235.48387097,0,4239.03225806,0,4198.38709677,0,0,0,?
2018-01-30 09:38:30.287000,4194.19354839,0,4165.80645161,0,4161.29032258,0,4072.90322581,0,4380.32258065,0,4282.25806452,0,4456.77419355,0,4347.41935484,0,4142.25806452,0,4241.61290323,0,4158.06451613,0,4288.38709677,0,4266.77419355,0,4204.51612903,0,0,0,?
2018-01-30 09:38:30.299000,4143.87096774,0,4148.70967742,0,4209.03225806,0,4137.74193548,0,4419.03225806,0,4289.35483871,0,4463.87096774,0,4358.06451613,0,4181.93548387,0,4219.03225806,0,4191.29032258,0,4306.12903226,0,4274.51612903,0,4221.93548387,0,0,0,?
2018-01-30 09:38:30.303000,4208.38709677,0,4182.58064516,0,4177.09677419,0,4141.93548387,0,4390.64516129,0,4269.35483871,0,4421.93548387,0,4383.87096774,0,4170.96774194,0,4257.09677419,0,4207.09677419,0,4339.67741935,0,4260.32258065,0,4259.67741935,0,0,0,?
2018-01-30 09:38:30.315000,4168.70967742,0,4160.0,0,4135.80645161,0,4109.67741935,0,4397.09677419,0,4232.58064516,0,4392.25806452,0,4332.25806452,0,4173.5483871,0,4228.06451613,0,4145.80645161,0,4276.12903226,0,4260.0,0,4205.16129032,0,0,0,?
2018-01-30 09:38:30.319000,4163.5483871,0,4144.19354839,0,4135.48387097,0,4090.64516129,0,4378.38709677,0,4225.80645161,0,4429.67741935,0,4371.61290323,0,4145.80645161,0,4235.16129032,0,4138.70967742,0,4309.03225806,0,4268.06451613,0,4217.09677419,0,0,0,?
2018-01-30 09:38:30.331000,4194.83870968,0,4175.16129032,0,4100.64516129,0,4088.38709677,0,4382.25806452,0,4268.70967742,0,4468.06451613,0,4394.83870968,0,4176.77419355,0,4228.70967742,0,4176.12903226,0,4313.5483871,0,4229.35483871,0,4270.64516129,0,0,0,?
2018-01-30 09:38:30.334000,4137.09677419,0,4160.96774194,0,4130.64516129,0,4145.80645161,0,4419.35483871,0,4288.06451613,0,4492.25806452,0,4406.77419355,0,4211.29032258,0,4262.58064516,0,4188.38709677,0,4349.67741935,0,4236.4516129,0,4283.5483871,0,0,0,?
2018-01-30 09:38:30.349000,4193.87096774,0,4178.38709677,0,4155.80645161,0,4059.35483871,0,4368.38709677,0,4273.5483871,0,4435.16129032,0,4400.96774194,0,4165.80645161,0,4239.35483871,0,4201.61290323,0,4322.58064516,0,4270.0,0,4267.41935484,0,0,0,?
2018-01-30 09:38:30.350000,4178.06451613,0,4160.0,0,4121.29032258,0,4058.38709677,0,4360.32258065,0,4265.80645161,0,4428.70967742,0,4379.67741935,0,4182.25806452,0,4273.5483871,0,4206.77419355,0,4360.96774194,0,4217.41935484,0,4299.35483871,0,0,0,?
2018-01-30 09:38:30.363000,4129.35483871,0,4165.16129032,0,4152.90322581,0,4138.38709677,0,4404.83870968,0,4297.74193548,0,4454.51612903,0,4412.90322581,0,4216.12903226,0,4241.61290323,0,4201.61290323,0,4392.58064516,0,4239.35483871,0,4334.83870968,0,0,0,?
2018-01-30 09:38:30.366000,4180.32258065,0,4185.16129032,0,4128.70967742,0,4105.80645161,0,4375.48387097,0,4283.87096774,0,4492.25806452,0,4411.29032258,0,4163.22580645,0,4260.32258065,0,4143.22580645,0,4399.03225806,0,4260.64516129,0,4335.48387097,0,0,0,?
2018-01-30 09:38:30.379000,4138.70967742,0,4170.64516129,0,4135.48387097,0,4098.38709677,0,4345.80645161,0,4258.70967742,0,4449.35483871,0,4371.93548387,0,4148.38709677,0,4226.77419355,0,4110.32258065,0,4390.64516129,0,4238.38709677,0,4286.4516129,0,0,0,?
2018-01-30 09:38:30.382000,4166.77419355,0,4145.48387097,0,4094.19354839,0,4061.29032258,0,4358.06451613,0,4275.80645161,0,4398.06451613,0,4330.96774194,0,4155.16129032,0,4253.22580645,0,4134.83870968,0,4374.51612903,0,4236.77419355,0,4303.22580645,0,0,0,?
2018-01-30 09:38:30.394000,4178.70967742,0,4198.06451613,0,4160.64516129,0,4077.74193548,0,4414.83870968,0,4259.35483871,0,4465.48387097,0,4403.87096774,0,4204.19354839,0,4244.51612903,0,4201.61290323,0,4403.87096774,0,4236.4516129,0,4298.70967742,0,0,0,?
2018-01-30 09:38:30.397000,4158.38709677,0,4166.77419355,0,4149.67741935,0,4112.25806452,0,4417.09677419,0,4276.12903226,0,4479.35483871,0,4414.19354839,0,4244.19354839,0,4267.09677419,0,4168.38709677,0,4363.22580645,0,4261.93548387,0,4345.48387097,0,0,0,?
2018-01-30 09:38:30.409000,4172.58064516,0,4173.22580645,0,4117.41935484,0,4066.77419355,0,4368.06451613,0,4249.03225806,0,4422.90322581,0,4381.61290323,0,4176.77419355,0,4247.74193548,0,4120.32258065,0,4367.74193548,0,4199.67741935,0,4305.16129032,0,0,0,?
2018-01-30 09:38:30.413000,4178.06451613,0,4168.38709677,0,4141.29032258,0,4042.58064516,0,4346.12903226,0,4274.51612903,0,4424.19354839,0,4350.32258065,0,4139.35483871,0,4266.12903226,0,4126.77419355,0,4336.77419355,0,4242.90322581,0,4289.03225806,0,0,0,?
2018-01-30 09:38:30.425000,4350.96774194,0,4228.38709677,0,4118.70967742,0,3987.74193548,0,4381.29032258,0,4258.38709677,0,4394.83870968,0,4346.77419355,0,4090.96774194,0,4325.16129032,0,4135.48387097,0,4371.93548387,0,4290.32258065,0,4305.80645161,0,0,0,?
2018-01-30 09:38:30.428000,4195.48387097,0,4219.03225806,0,4139.03225806,0,4080.32258065,0,4367.74193548,0,4267.09677419,0,4445.16129032,0,4402.90322581,0,4173.22580645,0,4282.25806452,0,4160.96774194,0,4326.12903226,0,4202.25806452,0,4294.51612903,0,0,0,?
2018-01-30 09:38:30.442000,4138.70967742,0,4190.32258065,0,4140.0,0,4104.83870968,0,4400.0,0,4286.77419355,0,4481.61290323,0,4438.70967742,0,4228.06451613,0,4247.74193548,0,4196.77419355,0,4317.41935484,0,4237.41935484,0,4302.25806452,0,0,0,?
2018-01-30 09:38:30.445000,4196.77419355,0,4200.0,0,4129.67741935,0,4042.90322581,0,4337.74193548,0,4253.22580645,0,4425.80645161,0,4392.90322581,0,4155.80645161,0,4262.58064516,0,4179.03225806,0,4304.19354839,0,4243.5483871,0,4300.32258065,0,0,0,?
2018-01-30 09:38:30.466000,4127.74193548,0,4176.12903226,0,4135.16129032,0,4066.77419355,0,4369.67741935,0,4249.03225806,0,4407.09677419,0,4408.70967742,0,4132.58064516,0,4198.06451613,0,4144.83870968,0,4330.32258065,0,4189.03225806,0,4287.09677419,0,0,0,?
2018-01-30 09:38:30.481000,4160.64516129,0,4198.06451613,0,4129.35483871,0,4092.58064516,0,4337.41935484,0,4248.70967742,0,4442.58064516,0,4403.22580645,0,4160.64516129,0,4253.87096774,0,4163.5483871,0,4301.29032258,0,4230.96774194,0,4289.35483871,0,0,0,?
2018-01-30 09:38:30.486000,4157.41935484,0,4187.74193548,0,4136.12903226,0,4095.16129032,0,4380.96774194,0,4299.67741935,0,4446.4516129,0,4457.09677419,0,4202.58064516,0,4257.74193548,0,4181.29032258,0,4331.29032258,0,4216.4516129,0,4294.51612903,0,0,0,?
2018-01-30 09:38:30.487000,4115.16129032,0,4168.06451613,0,4145.48387097,0,4098.06451613,0,4364.83870968,0,4265.48387097,0,4451.61290323,0,4458.06451613,0,4203.5483871,0,4237.09677419,0,4195.16129032,0,4350.64516129,0,4200.0,0,4301.29032258,0,0,0,?
2018-01-30 09:38:30.503000,4191.29032258,0,4162.25806452,0,4098.70967742,0,4041.29032258,0,4367.41935484,0,4241.29032258,0,4413.87096774,0,4393.22580645,0,4113.22580645,0,4259.03225806,0,4123.22580645,0,4299.03225806,0,4225.16129032,0,4295.16129032,0,0,0,?
2018-01-30 09:38:30.507000,4105.48387097,0,4164.83870968,0,4140.32258065,0,4094.83870968,0,4358.70967742,0,4238.38709677,0,4464.83870968,0,4396.12903226,0,4127.74193548,0,4195.16129032,0,4139.03225806,0,4333.87096774,0,4208.06451613,0,4265.48387097,0,0,0,?
2018-01-30 09:38:30.519000,4146.4516129,0,4208.38709677,0,4130.64516129,0,4093.87096774,0,4351.93548387,0,4247.41935484,0,4423.87096774,0,4413.5483871,0,4133.87096774,0,4241.93548387,0,4176.77419355,0,4321.29032258,0,4223.5483871,0,4322.58064516,0,0,0,?
2018-01-30 09:38:30.523000,4173.5483871,0,4182.25806452,0,4177.09677419,0,4086.12903226,0,4347.74193548,0,4276.4516129,0,4437.41935484,0,4421.29032258,0,4206.4516129,0,4259.67741935,0,4135.80645161,0,4332.25806452,0,4239.67741935,0,4301.93548387,0,0,0,?
2018-01-30 09:38:30.535000,4138.70967742,0,4166.4516129,0,4187.41935484,0,4087.09677419,0,4370.64516129,0,4281.93548387,0,4469.35483871,0,4464.51612903,0,4171.29032258,0,4259.03225806,0,4187.74193548,0,4367.41935484,0,4196.77419355,0,4336.4516129,0,0,0,?
2018-01-30 09:38:30.543000,4202.58064516,0,4173.87096774,0,4130.32258065,0,4076.77419355,0,4314.19354839,0,4265.80645161,0,4428.70967742,0,4414.83870968,0,4141.61290323,0,4267.74193548,0,4158.38709677,0,4353.87096774,0,4234.19354839,0,4336.4516129,0,0,0,?
2018-01-30 09:38:30.549000,4117.74193548,0,4182.90322581,0,4100.64516129,0,4035.80645161,0,4319.03225806,0,4239.67741935,0,4419.67741935,0,4405.16129032,0,4138.06451613,0,4227.41935484,0,4119.03225806,0,4308.38709677,0,4215.48387097,0,4266.4516129,0,0,0,?
2018-01-30 09:38:30.550000,4138.38709677,0,4165.48387097,0,4139.35483871,0,4022.90322581,0,4346.12903226,0,4252.90322581,0,4417.09677419,0,4402.90322581,0,4164.51612903,0,4257.41935484,0,4160.96774194,0,4323.22580645,0,4216.77419355,0,4310.64516129,0,0,0,?
2018-01-30 09:38:30.565000,4165.16129032,0,4180.96774194,0,4178.70967742,0,4029.03225806,0,4339.35483871,0,4238.06451613,0,4418.06451613,0,4384.19354839,0,4153.87096774,0,4237.74193548,0,4165.16129032,0,4318.06451613,0,4208.06451613,0,4323.5483871,0,0,0,?
2018-01-30 09:38:30.567000,4131.29032258,0,4178.06451613,0,4116.12903226,0,4032.58064516,0,4305.80645161,0,4238.06451613,0,4420.0,0,4368.38709677,0,4109.35483871,0,4209.35483871,0,4111.61290323,0,4325.48387097,0,4217.09677419,0,4259.35483871,0,0,0,?
2018-01-30 09:38:30.582000,4176.77419355,0,4207.09677419,0,4141.29032258,0,4002.58064516,0,4300.96774194,0,4242.58064516,0,4394.83870968,0,4380.64516129,0,4096.4516129,0,4250.0,0,4104.51612903,0,4328.70967742,0,4203.87096774,0,4283.87096774,0,0,0,?
2018-01-30 09:38:30.583000,4151.93548387,0,4172.90322581,0,4179.67741935,0,4077.74193548,0,4327.74193548,0,4264.51612903,0,4440.0,0,4453.5483871,0,4160.64516129,0,4242.25806452,0,4196.4516129,0,4328.06451613,0,4200.0,0,4328.06451613,0,0,0,?
2018-01-30 09:38:30.601000,4138.70967742,0,4162.90322581,0,4124.51612903,0,4080.0,0,4303.87096774,0,4262.25806452,0,4443.22580645,0,4389.03225806,0,4138.38709677,0,4235.48387097,0,4136.77419355,0,4299.35483871,0,4222.90322581,0,4339.67741935,0,0,0,?
2018-01-30 09:38:30.602000,4158.70967742,0,4206.12903226,0,4075.80645161,0,3971.29032258,0,4301.93548387,0,4253.87096774,0,4427.74193548,0,4403.22580645,0,4089.35483871,0,4216.12903226,0,4109.67741935,0,4293.22580645,0,4231.29032258,0,4262.58064516,0,0,0,?
2018-01-30 09:38:30.620000,4135.16129032,0,4161.29032258,0,4155.48387097,0,4012.25806452,0,4303.87096774,0,4238.70967742,0,4434.83870968,0,4432.25806452,0,4178.70967742,0,4224.19354839,0,4141.61290323,0,4297.41935484,0,4219.35483871,0,4324.83870968,0,0,0,?
2018-01-30 09:38:30.623000,4180.96774194,0,4195.80645161,0,4136.77419355,0,4049.35483871,0,4309.67741935,0,4247.74193548,0,4431.61290323,0,4433.87096774,0,4161.61290323,0,4254.19354839,0,4194.83870968,0,4324.19354839,0,4218.06451613,0,4311.61290323,0,0,0,?
2018-01-30 09:38:30.628000,4152.25806452,0,4210.32258065,0,4100.96774194,0,4027.09677419,0,4311.93548387,0,4267.09677419,0,4399.03225806,0,4377.41935484,0,4098.06451613,0,4198.38709677,0,4132.25806452,0,4318.38709677,0,4208.06451613,0,4303.5483871,0,0,0,?
2018-01-30 09:38:30.629000,4133.87096774,0,4211.29032258,0,4091.93548387,0,4009.35483871,0,4329.67741935,0,4245.16129032,0,4421.61290323,0,4385.16129032,0,4098.06451613,0,4210.96774194,0,4108.38709677,0,4316.77419355,0,4231.61290323,0,4283.87096774,0,0,0,?
2018-01-30 09:38:30.643000,4171.29032258,0,4203.87096774,0,4123.22580645,0,4074.83870968,0,4340.64516129,0,4291.93548387,0,4424.51612903,0,4431.93548387,0,4182.90322581,0,4251.93548387,0,4145.48387097,0,4297.09677419,0,4209.03225806,0,4320.0,0,0,0,?
2018-01-30 09:38:30.644000,4136.4516129,0,4208.70967742,0,4202.90322581,0,4096.12903226,0,4322.58064516,0,4280.0,0,4452.58064516,0,4447.09677419,0,4218.70967742,0,4265.16129032,0,4168.70967742,0,4318.38709677,0,4206.4516129,0,4312.90322581,0,0,0,?
2018-01-30 09:38:30.663000,4208.06451613,0,4228.38709677,0,4145.80645161,0,4012.58064516,0,4317.74193548,0,4259.35483871,0,4450.0,0,4389.67741935,0,4144.19354839,0,4232.58064516,0,4170.0,0,4312.90322581,0,4240.64516129,0,4332.25806452,0,0,0,?
2018-01-30 09:38:30.664000,4140.32258065,0,4181.93548387,0,4099.35483871,0,4017.74193548,0,4301.93548387,0,4227.41935484,0,4432.58064516,0,4386.4516129,0,4134.19354839,0,4233.87096774,0,4137.74193548,0,4323.22580645,0,4231.29032258,0,4258.70967742,0,0,0,?
2018-01-30 09:38:30.676000,4163.87096774,0,4200.32258065,0,4109.67741935,0,4044.51612903,0,4282.58064516,0,4259.67741935,0,4418.06451613,0,4376.77419355,0,4151.93548387,0,4243.5483871,0,4122.90322581,0,4312.58064516,0,4194.51612903,0,4260.0,0,0,0,?
2018-01-30 09:38:30.678000,4158.70967742,0,4171.93548387,0,4133.22580645,0,4005.16129032,0,4293.87096774,0,4238.06451613,0,4421.93548387,0,4357.74193548,0,4136.4516129,0,4251.93548387,0,4116.12903226,0,4319.67741935,0,4215.16129032,0,4294.83870968,0,0,0,?
2018-01-30 09:38:30.693000,4127.74193548,0,4200.96774194,0,4141.61290323,0,4018.06451613,0,4284.83870968,0,4234.83870968,0,4417.74193548,0,4386.4516129,0,4107.74193548,0,4210.32258065,0,4131.61290323,0,4294.19354839,0,4239.35483871,0,4271.61290323,0,0,0,?
2018-01-30 09:38:30.694000,4177.41935484,0,4164.51612903,0,4100.0,0,3992.90322581,0,4292.58064516,0,4254.83870968,0,4420.0,0,4357.74193548,0,4083.5483871,0,4231.29032258,0,4085.80645161,0,4269.03225806,0,4213.87096774,0,4274.83870968,0,0,0,?
2018-01-30 09:38:30.708000,4173.5483871,0,4180.64516129,0,4108.06451613,0,4061.61290323,0,4313.5483871,0,4235.48387097,0,4444.51612903,0,4389.35483871,0,4166.4516129,0,4246.77419355,0,4152.25806452,0,4322.90322581,0,4240.0,0,4303.87096774,0,0,0,?
2018-01-30 09:38:30.709000,4149.03225806,0,4191.29032258,0,4195.80645161,0,4069.03225806,0,4320.32258065,0,4275.48387097,0,4419.67741935,0,4421.29032258,0,4166.4516129,0,4265.80645161,0,4206.77419355,0,4328.06451613,0,4220.0,0,4368.38709677,0,0,0,?
2018-01-30 09:38:30.724000,4180.0,0,4192.25806452,0,4144.83870968,0,4048.06451613,0,4299.67741935,0,4236.4516129,0,4388.06451613,0,4420.64516129,0,4134.83870968,0,4242.90322581,0,4171.29032258,0,4317.74193548,0,4213.5483871,0,4317.09677419,0,0,0,?
2018-01-30 09:38:30.725000,4157.09677419,0,4165.48387097,0,4104.19354839,0,4014.51612903,0,4267.09677419,0,4254.83870968,0,4421.29032258,0,4357.74193548,0,4127.74193548,0,4202.58064516,0,4164.19354839,0,4273.87096774,0,4218.38709677,0,4325.16129032,0,0,0,?
2018-01-30 09:38:30.740000,4184.83870968,0,4182.25806452,0,4098.38709677,0,4013.5483871,0,4286.12903226,0,4228.06451613,0,4385.80645161,0,4378.06451613,0,4127.74193548,0,4228.06451613,0,4130.96774194,0,4282.25806452,0,4224.19354839,0,4303.87096774,0,0,0,?
2018-01-30 09:38:30.741000,4149.35483871,0,4165.80645161,0,4118.70967742,0,4021.93548387,0,4273.5483871,0,4268.38709677,0,4376.4516129,0,4400.64516129,0,4136.12903226,0,4211.61290323,0,4155.48387097,0,4274.83870968,0,4203.5483871,0,4308.38709677,0,0,0,?
2018-01-30 09:38:30.757000,4129.03225806,0,4167.41935484,0,4098.06451613,0,4027.74193548,0,4290.32258065,0,4273.87096774,0,4420.64516129,0,4434.19354839,0,4126.4516129,0,4219.67741935,0,4150.96774194,0,4300.32258065,0,4209.67741935,0,4356.77419355,0,0,0,?
2018-01-30 09:38:30.757000,4180.96774194,0,4192.25806452,0,4145.80645161,0,4020.64516129,0,4316.4516129,0,4252.58064516,0,4403.5483871,0,4392.90322581,0,4138.06451613,0,4237.09677419,0,4186.4516129,0,4290.64516129,0,4227.41935484,0,4352.90322581,0,0,0,?
2018-01-30 09:38:30.774000,4176.77419355,0,4160.0,0,4074.83870968,0,3948.06451613,0,4264.51612903,0,4223.87096774,0,4354.19354839,0,4345.16129032,0,4068.06451613,0,4222.90322581,0,4117.41935484,0,4237.74193548,0,4191.61290323,0,4297.41935484,0,0,0,?
2018-01-30 09:38:30.775000,4173.22580645,0,4175.80645161,0,4039.03225806,0,3889.35483871,0,4237.41935484,0,4216.77419355,0,4331.93548387,0,4289.03225806,0,4019.67741935,0,4207.09677419,0,4060.96774194,0,4224.19354839,0,4192.58064516,0,4267.09677419,0,0,0,?
2018-01-30 09:38:30.788000,4188.70967742,0,4158.38709677,0,4049.67741935,0,3946.77419355,0,4270.0,0,4212.58064516,0,4368.38709677,0,4302.58064516,0,4026.77419355,0,4208.06451613,0,4064.51612903,0,4267.09677419,0,4198.70967742,0,4285.48387097,0,0,0,?
2018-01-30 09:38:30.789000,4147.74193548,0,4166.4516129,0,4037.09677419,0,3962.25806452,0,4269.03225806,0,4231.29032258,0,4373.5483871,0,4371.29032258,0,4099.03225806,0,4207.74193548,0,4136.77419355,0,4243.87096774,0,4206.77419355,0,4310.64516129,0,0,0,?
2018-01-30 09:38:30.807000,4170.96774194,0,4164.83870968,0,4040.32258065,0,3910.0,0,4228.38709677,0,4194.51612903,0,4358.38709677,0,4315.16129032,0,4007.41935484,0,4215.80645161,0,4090.32258065,0,4242.25806452,0,4221.93548387,0,4273.22580645,0,0,0,?
2018-01-30 09:38:30.807000,4167.41935484,0,4174.19354839,0,4013.5483871,0,3920.64516129,0,4228.38709677,0,4226.77419355,0,4334.51612903,0,4305.48387097,0,4000.32258065,0,4183.22580645,0,4053.22580645,0,4236.77419355,0,4177.74193548,0,4276.4516129,0,0,0,?
2018-01-30 09:38:30.818000,4165.48387097,0,4178.38709677,0,4020.0,0,3933.22580645,0,4258.38709677,0,4203.87096774,0,4329.35483871,0,4284.51612903,0,4005.48387097,0,4197.09677419,0,4096.77419355,0,4262.25806452,0,4205.48387097,0,4270.64516129,0,0,0,?
2018-01-30 09:38:30.820000,4199.35483871,0,4146.77419355,0,4032.90322581,0,3950.64516129,0,4301.29032258,0,4226.4516129,0,4360.32258065,0,4299.03225806,0,4000.64516129,0,4209.67741935,0,4099.35483871,0,4251.29032258,0,4209.03225806,0,4296.4516129,0,0,0,?
2018-01-30 09:38:30.834000,4167.09677419,0,4141.93548387,0,4079.67741935,0,3950.32258065,0,4294.51612903,0,4262.25806452,0,4395.48387097,0,4371.93548387,0,4044.83870968,0,4218.06451613,0,4130.96774194,0,4226.12903226,0,4242.58064516,0,4275.16129032,0,0,0,?
2018-01-30 09:38:30.835000,4195.80645161,0,4166.12903226,0,4067.41935484,0,3970.64516129,0,4264.83870968,0,4275.48387097,0,4397.09677419,0,4291.93548387,0,4045.16129032,0,4216.12903226,0,4109.35483871,0,4255.16129032,0,4230.64516129,0,4298.70967742,0,0,0,?
2018-01-30 09:38:30.850000,4138.70967742,0,4154.19354839,0,4073.22580645,0,3926.4516129,0,4276.4516129,0,4220.64516129,0,4356.12903226,0,4310.96774194,0,4050.64516129,0,4178.06451613,0,4105.48387097,0,4197.41935484,0,4239.35483871,0,4297.09677419,0,0,0,?
2018-01-30 09:38:30.851000,4166.12903226,0,4179.67741935,0,4063.5483871,0,3943.22580645,0,4303.87096774,0,4236.12903226,0,4381.93548387,0,4366.4516129,0,4054.51612903,0,4226.12903226,0,4136.77419355,0,4240.96774194,0,4284.83870968,0,4338.38709677,0,0,0,?
2018-01-30 09:38:30.866000,4186.12903226,0,4201.93548387,0,4108.38709677,0,3976.77419355,0,4319.67741935,0,4255.48387097,0,4367.41935484,0,4343.5483871,0,4044.51612903,0,4236.77419355,0,4169.03225806,0,4256.77419355,0,4302.58064516,0,4316.4516129,0,0,0,?
2018-01-30 09:38:30.867000,4131.61290323,0,4136.12903226,0,4040.64516129,0,3916.4516129,0,4243.22580645,0,4223.22580645,0,4349.03225806,0,4266.77419355,0,4011.61290323,0,4179.03225806,0,4081.93548387,0,4240.32258065,0,4330.96774194,0,4270.0,0,0,0,?
2018-01-30 09:38:30.884000,4179.35483871,0,4132.90322581,0,4037.09677419,0,3883.5483871,0,4272.25806452,0,4195.48387097,0,4371.29032258,0,4317.74193548,0,4020.96774194,0,4223.22580645,0,4082.25806452,0,4199.35483871,0,4362.58064516,0,4323.5483871,0,0,0,?
2018-01-30 09:38:30.885000,4144.51612903,0,4143.5483871,0,4145.16129032,0,4001.29032258,0,4322.25806452,0,4244.51612903,0,4408.06451613,0,4387.74193548,0,4146.4516129,0,4217.41935484,0,4231.93548387,0,4235.48387097,0,4469.67741935,0,4342.58064516,0,0,0,?
2018-01-30 09:38:30.897000,4131.61290323,0,4173.22580645,0,4137.09677419,0,4002.58064516,0,4319.67741935,0,4259.03225806,0,4358.38709677,0,4356.4516129,0,4127.74193548,0,4232.58064516,0,4230.96774194,0,4272.58064516,0,4596.12903226,0,4372.25806452,0,0,0,?
2018-01-30 09:38:30.898000,4173.22580645,0,4164.51612903,0,4094.19354839,0,3998.38709677,0,4281.93548387,0,4206.4516129,0,4335.16129032,0,4305.48387097,0,4023.22580645,0,4198.70967742,0,4182.58064516,0,4213.87096774,0,4609.35483871,0,4331.93548387,0,0,0,?
2018-01-30 09:38:30.916000,4142.90322581,0,4133.5483871,0,4121.61290323,0,4006.4516129,0,4296.12903226,0,4239.35483871,0,4389.67741935,0,4374.19354839,0,4113.22580645,0,4194.83870968,0,4255.80645161,0,4257.09677419,0,4535.48387097,0,4402.25806452,0,0,0,?
2018-01-30 09:38:30.917000,4165.48387097,0,4191.29032258,0,4129.03225806,0,4022.58064516,0,4346.12903226,0,4283.87096774,0,4436.12903226,0,4391.93548387,0,4175.48387097,0,4254.83870968,0,4264.19354839,0,4275.16129032,0,4546.12903226,0,4434.51612903,0,0,0,?
2018-01-30 09:38:30.928000,4174.83870968,0,4176.12903226,0,4174.83870968,0,3982.58064516,0,4321.61290323,0,4267.74193548,0,4391.61290323,0,4358.70967742,0,4145.48387097,0,4194.51612903,0,4266.4516129,0,4243.22580645,0,4526.77419355,0,4400.96774194,0,0,0,?
2018-01-30 09:38:30.929000,4150.64516129,0,4137.09677419,0,4157.09677419,0,3997.09677419,0,4300.96774194,0,4214.83870968,0,4401.93548387,0,4356.4516129,0,4077.41935484,0,4183.22580645,0,4224.51612903,0,4210.32258065,0,4507.41935484,0,4334.51612903,0,0,0,?
2018-01-30 09:38:30.943000,4172.58064516,0,4147.41935484,0,4082.58064516,0,3950.64516129,0,4276.77419355,0,4214.83870968,0,4362.90322581,0,4320.96774194,0,4078.70967742,0,4206.77419355,0,4194.83870968,0,4207.74193548,0,4553.5483871,0,4371.93548387,0,0,0,?
2018-01-30 09:38:30.944000,4138.38709677,0,4160.0,0,4133.22580645,0,4049.03225806,0,4291.29032258,0,4228.38709677,0,4363.22580645,0,4353.22580645,0,4140.64516129,0,4220.64516129,0,4210.32258065,0,4240.0,0,4576.12903226,0,4391.93548387,0,0,0,?
2018-01-30 09:38:30.960000,4168.06451613,0,4170.32258065,0,4159.35483871,0,4032.58064516,0,4345.48387097,0,4270.96774194,0,4397.09677419,0,4362.58064516,0,4129.67741935,0,4196.77419355,0,4271.93548387,0,4267.41935484,0,4622.58064516,0,4388.06451613,0,0,0,?
2018-01-30 09:38:30.961000,4183.87096774,0,4175.80645161,0,4110.0,0,3979.67741935,0,4279.35483871,0,4244.51612903,0,4390.96774194,0,4340.96774194,0,4042.58064516,0,4221.29032258,0,4225.48387097,0,4254.51612903,0,4651.93548387,0,4369.03225806,0,0,0,?
2018-01-30 09:38:30.975000,4156.4516129,0,4188.06451613,0,4140.0,0,3989.35483871,0,4283.87096774,0,4228.38709677,0,4416.4516129,0,4368.06451613,0,4101.29032258,0,4181.29032258,0,4191.93548387,0,4275.80645161,0,4593.87096774,0,4328.38709677,0,0,0,?
2018-01-30 09:38:30.976000,4168.06451613,0,4209.67741935,0,4100.96774194,0,3979.35483871,0,4312.90322581,0,4266.4516129,0,4385.80645161,0,4350.64516129,0,4143.5483871,0,4225.16129032,0,4223.87096774,0,4242.58064516,0,4496.4516129,0,4372.90322581,0,0,0,?
2018-01-30 09:38:30.992000,4154.51612903,0,4181.29032258,0,4109.67741935,0,3964.83870968,0,4260.32258065,0,4206.12903226,0,4360.96774194,0,4281.93548387,0,4081.93548387,0,4205.16129032,0,4184.51612903,0,4226.12903226,0,4380.64516129,0,4293.22580645,0,0,0,?
2018-01-30 09:38:30.993000,4141.61290323,0,4194.51612903,0,4130.32258065,0,4011.93548387,0,4284.83870968,0,4249.35483871,0,4390.96774194,0,4373.87096774,0,4107.41935484,0,4206.77419355,0,4198.70967742,0,4270.32258065,0,4343.5483871,0,4370.32258065,0,0,0,?
2018-01-30 09:38:31.007000,4188.38709677,0,4234.19354839,0,4212.90322581,0,4064.51612903,0,4399.67741935,0,4285.80645161,0,4453.5483871,0,4522.90322581,0,4210.64516129,0,4232.58064516,0,4290.0,0,4288.70967742,0,4316.4516129,0,4459.67741935,0,0,0,?
2018-01-30 09:38:31.008000,4140.96774194,0,4199.03225806,0,4217.09677419,0,4083.5483871,0,4367.41935484,0,4276.77419355,0,4393.22580645,0,4474.51612903,0,4208.38709677,0,4222.58064516,0,4266.12903226,0,4260.0,0,4321.93548387,0,4438.06451613,0,0,0,?
2018-01-30 09:38:31.023000,4162.90322581,0,4218.38709677,0,4128.38709677,0,4024.83870968,0,4284.19354839,0,4217.09677419,0,4359.35483871,0,4356.12903226,0,4110.64516129,0,4204.19354839,0,4207.09677419,0,4232.25806452,0,4309.67741935,0,4360.32258065,0,0,0,?
2018-01-30 09:38:31.024000,4126.77419355,0,4201.29032258,0,4161.29032258,0,4014.83870968,0,4312.90322581,0,4250.96774194,0,4400.64516129,0,4480.32258065,0,4129.03225806,0,4195.48387097,0,4208.06451613,0,4262.90322581,0,4296.4516129,0,4407.74193548,0,0,0,?
2018-01-30 09:38:31.040000,4135.16129032,0,4234.83870968,0,4238.38709677,0,4013.5483871,0,4348.06451613,0,4258.70967742,0,4370.32258065,0,4487.74193548,0,4178.38709677,0,4196.4516129,0,4270.0,0,4280.96774194,0,4341.61290323,0,4467.41935484,0,0,0,?
2018-01-30 09:38:31.040000,4138.38709677,0,4257.41935484,0,4160.96774194,0,3968.70967742,0,4275.16129032,0,4235.80645161,0,4294.19354839,0,4305.16129032,0,4104.19354839,0,4201.29032258,0,4161.29032258,0,4336.12903226,0,4337.74193548,0,4424.83870968,0,0,0,?
2018-01-30 09:38:31.057000,4113.87096774,0,4256.12903226,0,4132.58064516,0,3938.70967742,0,4274.51612903,0,4215.16129032,0,4275.48387097,0,4330.64516129,0,4020.32258065,0,4199.35483871,0,4136.77419355,0,4445.16129032,0,4351.29032258,0,4458.06451613,0,0,0,?
2018-01-30 09:38:31.058000,4149.67741935,0,4279.03225806,0,4065.16129032,0,3875.80645161,0,4240.96774194,0,4210.32258065,0,4255.80645161,0,4311.61290323,0,3975.80645161,0,4168.06451613,0,4110.96774194,0,4467.41935484,0,4350.0,0,4442.25806452,0,0,0,?
2018-01-30 09:38:31.078000,4116.12903226,0,4247.74193548,0,4069.35483871,0,3822.58064516,0,4254.83870968,0,4170.32258065,0,4140.96774194,0,4222.58064516,0,3961.93548387,0,4151.61290323,0,4038.70967742,0,4355.48387097,0,4261.29032258,0,4355.80645161,0,0,0,?
2018-01-30 09:38:31.078000,4184.51612903,0,4260.64516129,0,4101.93548387,0,3864.83870968,0,4263.5483871,0,4206.12903226,0,4172.90322581,0,4317.09677419,0,4011.61290323,0,4142.25806452,0,4079.35483871,0,4344.19354839,0,4232.90322581,0,4436.77419355,0,0,0,?
2018-01-30 09:38:31.086000,4128.38709677,0,4277.09677419,0,4177.74193548,0,3856.12903226,0,4245.48387097,0,4232.25806452,0,4432.25806452,0,4411.29032258,0,4014.83870968,0,4151.29032258,0,4019.35483871,0,4357.09677419,0,4242.90322581,0,4449.67741935,0,0,0,?
2018-01-30 09:38:31.087000,4128.38709677,0,4277.09677419,0,4177.74193548,0,3856.12903226,0,4245.48387097,0,4232.25806452,0,4432.25806452,0,4411.29032258,0,4014.83870968,0,4151.29032258,0,4019.35483871,0,4357.09677419,0,4242.90322581,0,4449.67741935,0,0,0,?
2018-01-30 09:38:31.102000,4130.0,0,4249.03225806,0,4081.29032258,0,3773.5483871,0,4261.61290323,0,4170.96774194,0,4384.83870968,0,4282.58064516,0,3936.4516129,0,4159.35483871,0,3903.87096774,0,4340.32258065,0,4224.83870968,0,4576.4516129,0,0,0,?
2018-01-30 09:38:31.102000,4123.22580645,0,4245.48387097,0,4105.80645161,0,3757.74193548,0,4304.19354839,0,4228.06451613,0,4426.4516129,0,4406.4516129,0,3887.74193548,0,4112.25806452,0,3819.67741935,0,4330.64516129,0,4169.67741935,0,4682.25806452,0,0,0,?
2018-01-30 09:38:31.126000,4102.90322581,0,4290.96774194,0,4192.90322581,0,3849.03225806,0,4362.58064516,0,4239.03225806,0,4467.74193548,0,4548.70967742,0,3989.03225806,0,4149.35483871,0,3889.67741935,0,4408.06451613,0,4222.58064516,0,4824.83870968,0,0,0,?
2018-01-30 09:38:31.127000,4100.32258065,0,4323.22580645,0,4233.22580645,0,3864.19354839,0,4399.67741935,0,4240.96774194,0,4336.4516129,0,4630.96774194,0,4046.12903226,0,4187.41935484,0,3840.96774194,0,4418.06451613,0,4301.61290323,0,4912.58064516,0,0,0,?
2018-01-30 09:38:31.134000,4137.74193548,0,4373.87096774,0,4194.83870968,0,3783.22580645,0,4343.5483871,0,4240.32258065,0,4141.29032258,0,4640.64516129,0,4010.96774194,0,4132.90322581,0,3773.22580645,0,4371.93548387,0,4289.67741935,0,4975.80645161,0,0,0,?
2018-01-30 09:38:31.135000,4158.38709677,0,4354.83870968,0,4107.09677419,0,3681.93548387,0,4326.4516129,0,4208.38709677,0,3909.35483871,0,4637.41935484,0,3900.96774194,0,4118.70967742,0,3674.19354839,0,4331.61290323,0,4268.70967742,0,4963.87096774,0,0,0,?
2018-01-30 09:38:31.149000,4090.96774194,0,4299.03225806,0,3984.51612903,0,3654.83870968,0,4290.32258065,0,4165.16129032,0,3923.87096774,0,4656.77419355,0,3798.38709677,0,4093.87096774,0,3543.22580645,0,4293.22580645,0,4208.06451613,0,4880.96774194,0,0,0,?
2018-01-30 09:38:31.150000,4133.22580645,0,4349.67741935,0,3982.58064516,0,3616.12903226,0,4313.87096774,0,4225.48387097,0,3950.64516129,0,4690.32258065,0,3777.41935484,0,4090.64516129,0,3582.90322581,0,4282.25806452,0,4266.12903226,0,4952.90322581,0,0,0,?
2018-01-30 09:38:31.168000,4151.29032258,0,4449.35483871,0,4140.0,0,3718.70967742,0,4393.22580645,0,4243.22580645,0,3968.70967742,0,4812.25806452,0,3881.93548387,0,4119.35483871,0,3647.41935484,0,4358.06451613,0,4277.41935484,0,5087.74193548,0,0,0,?
2018-01-30 09:38:31.169000,4107.41935484,0,4514.51612903,0,4112.58064516,0,3720.64516129,0,4363.22580645,0,4230.64516129,0,4113.87096774,0,4911.61290323,0,3934.19354839,0,4136.4516129,0,3712.90322581,0,4351.93548387,0,4254.83870968,0,5113.5483871,0,0,0,?
2018-01-30 09:38:31.179000,4130.96774194,0,4560.0,0,3995.16129032,0,3631.93548387,0,4324.83870968,0,4224.19354839,0,4109.35483871,0,4931.29032258,0,3819.35483871,0,4091.61290323,0,3583.5483871,0,4285.16129032,0,4227.74193548,0,5103.87096774,0,0,0,?
2018-01-30 09:38:31.180000,4098.70967742,0,4591.93548387,0,3992.25806452,0,3564.51612903,0,4345.48387097,0,4214.51612903,0,4082.25806452,0,4870.64516129,0,3756.4516129,0,4067.09677419,0,3584.83870968,0,4292.25806452,0,4241.61290323,0,5190.96774194,0,0,0,?
2018-01-30 09:38:31.202000,4072.25806452,0,4550.96774194,0,3968.38709677,0,3588.70967742,0,4324.83870968,0,4179.67741935,0,4080.32258065,0,4855.16129032,0,3768.38709677,0,4071.93548387,0,3566.4516129,0,4241.61290323,0,4223.22580645,0,5156.77419355,0,0,0,?
2018-01-30 09:38:31.203000,4115.80645161,0,4558.06451613,0,3911.93548387,0,3507.74193548,0,4315.48387097,0,4171.29032258,0,4304.19354839,0,4910.64516129,0,3722.58064516,0,4038.06451613,0,3544.51612903,0,4211.29032258,0,4240.96774194,0,5085.16129032,0,0,0,?
2018-01-30 09:38:31.211000,4075.16129032,0,4544.19354839,0,3991.93548387,0,3527.09677419,0,4386.77419355,0,4166.12903226,0,4499.67741935,0,5032.90322581,0,3772.25806452,0,4077.74193548,0,3586.77419355,0,4216.77419355,0,4223.5483871,0,5120.96774194,0,0,0,?
2018-01-30 09:38:31.212000,4111.61290323,0,4561.29032258,0,3964.83870968,0,3504.51612903,0,4354.51612903,0,4205.48387097,0,4383.87096774,0,4980.96774194,0,3746.77419355,0,4036.77419355,0,3517.09677419,0,4193.5483871,0,4247.09677419,0,5146.4516129,0,0,0,?
2018-01-30 09:38:31.226000,4120.32258065,0,4516.4516129,0,3914.83870968,0,3403.5483871,0,4268.06451613,0,4139.03225806,0,4237.09677419,0,5002.58064516,0,3657.74193548,0,4005.80645161,0,3472.90322581,0,4126.77419355,0,4179.67741935,0,5135.80645161,0,0,0,?
2018-01-30 09:38:31.227000,4101.61290323,0,4561.93548387,0,3935.48387097,0,3492.90322581,0,4365.48387097,0,4179.03225806,0,4263.22580645,0,5064.51612903,0,3703.5483871,0,4041.61290323,0,3540.0,0,4145.48387097,0,4239.67741935,0,5259.03225806,0,0,0,?
2018-01-30 09:38:31.242000,4119.67741935,0,4543.87096774,0,3951.61290323,0,3475.48387097,0,4403.5483871,0,4182.58064516,0,4356.77419355,0,5070.96774194,0,3692.25806452,0,4047.74193548,0,3558.06451613,0,4170.96774194,0,4238.70967742,0,5293.5483871,0,0,0,?
2018-01-30 09:38:31.243000,4072.25806452,0,4526.12903226,0,3880.32258065,0,3415.80645161,0,4329.35483871,0,4151.61290323,0,4366.12903226,0,4988.70967742,0,3625.48387097,0,3995.80645161,0,3468.70967742,0,4138.06451613,0,4132.90322581,0,5219.67741935,0,0,0,?
2018-01-30 09:38:31.258000,4146.77419355,0,4500.64516129,0,3813.22580645,0,3360.96774194,0,4361.29032258,0,4120.0,0,4459.67741935,0,5026.12903226,0,3583.22580645,0,3967.74193548,0,3389.67741935,0,4071.61290323,0,4188.06451613,0,5154.51612903,0,0,0,?
2018-01-30 09:38:31.259000,4146.77419355,0,4500.64516129,0,3802.90322581,0,3360.96774194,0,4361.29032258,0,4120.0,0,4459.67741935,0,5026.12903226,0,3583.22580645,0,3990.0,0,3400.64516129,0,4071.61290323,0,4188.06451613,0,5151.93548387,0,0,0,?
2018-01-30 09:38:31.275000,4105.16129032,0,4492.25806452,0,3744.19354839,0,3318.06451613,0,4290.64516129,0,4140.64516129,0,4410.32258065,0,4972.58064516,0,3538.70967742,0,3971.29032258,0,3390.0,0,4090.64516129,0,4183.5483871,0,5103.5483871,0,0,0,?
2018-01-30 09:38:31.276000,4125.80645161,0,4532.58064516,0,3734.19354839,0,3280.64516129,0,4302.58064516,0,4111.61290323,0,4298.70967742,0,4895.80645161,0,3502.90322581,0,3973.87096774,0,3347.74193548,0,4057.41935484,0,4180.32258065,0,5139.03225806,0,0,0,?
2018-01-30 09:38:31.291000,4110.96774194,0,4516.77419355,0,3827.09677419,0,3330.0,0,4355.80645161,0,4121.61290323,0,4349.67741935,0,4917.09677419,0,3583.22580645,0,3987.41935484,0,3370.64516129,0,4036.12903226,0,4184.83870968,0,5112.58064516,0,0,0,?
2018-01-30 09:38:31.292000,4131.61290323,0,4470.32258065,0,3805.16129032,0,3347.41935484,0,4309.35483871,0,4086.77419355,0,4363.22580645,0,4870.96774194,0,3537.74193548,0,3985.48387097,0,3390.0,0,4043.87096774,0,4165.16129032,0,5106.4516129,0,0,0,?
2018-01-30 09:38:31.307000,4110.96774194,0,4452.58064516,0,3654.19354839,0,3171.61290323,0,4277.41935484,0,4054.83870968,0,4268.06451613,0,4831.93548387,0,3436.12903226,0,3935.80645161,0,3298.70967742,0,3996.77419355,0,4166.12903226,0,4982.58064516,0,0,0,?
2018-01-30 09:38:31.308000,4101.93548387,0,4434.51612903,0,3565.80645161,0,3088.06451613,0,4256.77419355,0,4019.35483871,0,4281.93548387,0,4773.22580645,0,3326.77419355,0,3894.19354839,0,3200.64516129,0,3946.4516129,0,4130.96774194,0,4948.06451613,0,0,0,?
2018-01-30 09:38:31.323000,4140.32258065,0,4326.12903226,0,3424.83870968,0,2933.87096774,0,4175.80645161,0,3969.03225806,0,4188.70967742,0,4630.0,0,3189.67741935,0,3842.90322581,0,3056.12903226,0,3867.09677419,0,4104.51612903,0,4803.22580645,0,0,0,?
2018-01-30 09:38:31.324000,4111.29032258,0,4323.5483871,0,3369.67741935,0,2890.0,0,4193.87096774,0,3987.74193548,0,4043.5483871,0,4598.70967742,0,3114.83870968,0,3829.35483871,0,3021.61290323,0,3831.29032258,0,4068.70967742,0,4738.06451613,0,0,0,?
2018-01-30 09:38:31.338000,4127.74193548,0,4321.93548387,0,3356.77419355,0,2910.32258065,0,4210.96774194,0,4003.22580645,0,3815.48387097,0,4611.29032258,0,3105.16129032,0,3867.09677419,0,3073.87096774,0,3811.29032258,0,4076.77419355,0,4743.87096774,0,0,0,?
2018-01-30 09:38:31.340000,4101.93548387,0,4294.19354839,0,3354.83870968,0,2875.16129032,0,4132.90322581,0,3936.77419355,0,3556.77419355,0,4560.96774194,0,3118.70967742,0,3846.12903226,0,3070.32258065,0,3816.77419355,0,3970.64516129,0,4724.19354839,0,0,0,?
2018-01-30 09:38:31.355000,4113.87096774,0,4250.64516129,0,3404.19354839,0,2949.03225806,0,4194.83870968,0,3937.74193548,0,3587.09677419,0,4603.87096774,0,3178.06451613,0,3885.48387097,0,3157.74193548,0,3824.19354839,0,3914.19354839,0,4753.22580645,0,0,0,?
2018-01-30 09:38:31.356000,4131.61290323,0,4296.77419355,0,3459.35483871,0,2973.5483871,0,4239.35483871,0,3949.03225806,0,3734.83870968,0,4628.06451613,0,3212.90322581,0,3882.90322581,0,3210.96774194,0,3883.22580645,0,3924.83870968,0,4763.5483871,0,0,0,?
2018-01-30 09:38:31.373000,4092.58064516,0,4265.48387097,0,3338.38709677,0,2987.09677419,0,4198.06451613,0,3913.5483871,0,3742.58064516,0,4584.19354839,0,3167.09677419,0,3873.22580645,0,3193.5483871,0,3855.80645161,0,3942.58064516,0,4706.4516129,0,0,0,?
2018-01-30 09:38:31.374000,4099.67741935,0,4290.64516129,0,3308.06451613,0,3024.83870968,0,4202.90322581,0,3956.77419355,0,3683.5483871,0,4576.4516129,0,3184.51612903,0,3856.77419355,0,3209.67741935,0,3821.29032258,0,3948.06451613,0,4683.22580645,0,0,0,?
2018-01-30 09:38:31.390000,4141.93548387,0,4329.67741935,0,3389.35483871,0,3068.38709677,0,4261.29032258,0,3998.38709677,0,3625.80645161,0,4643.22580645,0,3267.41935484,0,3891.29032258,0,3299.35483871,0,3912.58064516,0,3990.32258065,0,4773.22580645,0,0,0,?
2018-01-30 09:38:31.391000,4092.90322581,0,4290.64516129,0,3435.16129032,0,3167.74193548,0,4266.4516129,0,3988.38709677,0,3633.87096774,0,4675.16129032,0,3321.93548387,0,3909.67741935,0,3341.61290323,0,3942.58064516,0,4016.12903226,0,4807.09677419,0,0,0,?
2018-01-30 09:38:31.400000,4141.61290323,0,4298.38709677,0,3306.77419355,0,2990.32258065,0,4180.32258065,0,3957.74193548,0,3552.58064516,0,4534.51612903,0,3144.83870968,0,3864.51612903,0,3225.16129032,0,3883.87096774,0,3951.93548387,0,4709.03225806,0,0,0,?
2018-01-30 09:38:31.401000,4091.93548387,0,4233.5483871,0,3194.19354839,0,2892.90322581,0,4130.0,0,3908.06451613,0,3489.67741935,0,4483.22580645,0,3059.67741935,0,3856.4516129,0,3157.41935484,0,3774.19354839,0,3936.4516129,0,4629.03225806,0,0,0,?
2018-01-30 09:38:31.417000,4066.12903226,0,4222.58064516,0,3220.0,0,2876.4516129,0,4148.06451613,0,3931.61290323,0,3480.64516129,0,4481.93548387,0,3059.67741935,0,3813.22580645,0,3149.03225806,0,3809.67741935,0,3926.12903226,0,4636.12903226,0,0,0,?
2018-01-30 09:38:31.418000,4124.51612903,0,4237.41935484,0,3139.67741935,0,2792.58064516,0,4115.80645161,0,3929.03225806,0,3490.96774194,0,4368.38709677,0,2986.4516129,0,3826.4516129,0,3107.41935484,0,3760.32258065,0,3888.70967742,0,4585.80645161,0,0,0,?
2018-01-30 09:38:31.433000,4094.83870968,0,4178.70967742,0,3161.93548387,0,2824.51612903,0,4082.58064516,0,3909.35483871,0,3502.90322581,0,4360.32258065,0,2980.64516129,0,3807.74193548,0,3119.35483871,0,3723.87096774,0,3864.83870968,0,4553.5483871,0,0,0,?
2018-01-30 09:38:31.434000,4106.4516129,0,4209.35483871,0,3166.77419355,0,2871.61290323,0,4120.32258065,0,3938.70967742,0,3509.03225806,0,4368.06451613,0,3033.22580645,0,3810.0,0,3237.41935484,0,3783.22580645,0,3855.48387097,0,4637.09677419,0,0,0,?
2018-01-30 09:38:31.449000,4105.80645161,0,4191.61290323,0,3184.83870968,0,2879.35483871,0,4172.58064516,0,3962.90322581,0,3473.22580645,0,4386.12903226,0,3030.32258065,0,3854.51612903,0,3302.58064516,0,3770.64516129,0,3865.16129032,0,4636.77419355,0,0,0,?
2018-01-30 09:38:31.450000,4107.09677419,0,4170.96774194,0,3194.19354839,0,2841.93548387,0,4102.58064516,0,3912.25806452,0,3485.48387097,0,4377.09677419,0,3007.41935484,0,3842.90322581,0,3245.48387097,0,3716.12903226,0,3823.5483871,0,4591.93548387,0,0,0,?
2018-01-30 09:38:31.464000,4110.32258065,0,4144.51612903,0,3180.32258065,0,2848.70967742,0,4134.83870968,0,3949.67741935,0,3441.61290323,0,4307.41935484,0,3038.06451613,0,3841.93548387,0,3272.58064516,0,3740.96774194,0,3808.70967742,0,4537.74193548,0,0,0,?
2018-01-30 09:38:31.465000,4084.83870968,0,4168.38709677,0,3300.96774194,0,2933.22580645,0,4130.64516129,0,3942.90322581,0,3471.61290323,0,4372.25806452,0,3087.41935484,0,3816.77419355,0,3340.32258065,0,3766.12903226,0,3823.5483871,0,4537.74193548,0,0,0,?
2018-01-30 09:38:31.480000,4106.77419355,0,4175.48387097,0,3271.29032258,0,2900.32258065,0,4158.38709677,0,3966.77419355,0,3502.25806452,0,4343.5483871,0,3052.58064516,0,3814.51612903,0,3325.16129032,0,3779.03225806,0,3832.25806452,0,4562.90322581,0,0,0,?
2018-01-30 09:38:31.481000,4099.35483871,0,4169.35483871,0,3268.70967742,0,2867.41935484,0,4117.09677419,0,3942.25806452,0,3483.87096774,0,4273.5483871,0,3025.16129032,0,3807.09677419,0,3250.64516129,0,3757.74193548,0,3811.29032258,0,4490.96774194,0,0,0,?
2018-01-30 09:38:31.496000,4099.67741935,0,4140.32258065,0,3199.35483871,0,2854.19354839,0,4097.74193548,0,3942.25806452,0,3497.09677419,0,4162.90322581,0,3047.74193548,0,3790.32258065,0,3248.06451613,0,3706.77419355,0,3787.09677419,0,4453.22580645,0,0,0,?
2018-01-30 09:38:31.497000,4112.90322581,0,4157.09677419,0,3187.41935484,0,2802.90322581,0,4107.74193548,0,3952.25806452,0,3516.77419355,0,4099.35483871,0,3003.22580645,0,3774.51612903,0,3213.5483871,0,3714.83870968,0,3776.77419355,0,4429.03225806,0,0,0,?
2018-01-30 09:38:31.512000,4100.64516129,0,4158.38709677,0,3261.93548387,0,2833.22580645,0,4117.09677419,0,3971.29032258,0,3599.67741935,0,4130.32258065,0,3047.41935484,0,3787.09677419,0,3283.87096774,0,3714.19354839,0,3787.09677419,0,4422.58064516,0,0,0,?
2018-01-30 09:38:31.513000,4111.93548387,0,4144.83870968,0,3225.80645161,0,2905.80645161,0,4114.83870968,0,3937.74193548,0,3583.5483871,0,4009.35483871,0,3020.64516129,0,3805.48387097,0,3288.38709677,0,3719.67741935,0,3813.87096774,0,4468.06451613,0,0,0,?
2018-01-30 09:38:31.527000,4139.35483871,0,4121.61290323,0,3247.74193548,0,2903.5483871,0,4089.67741935,0,3913.5483871,0,3648.70967742,0,3944.83870968,0,3040.0,0,3793.22580645,0,3288.06451613,0,3693.5483871,0,3789.03225806,0,4452.25806452,0,0,0,?
2018-01-30 09:38:31.528000,4090.64516129,0,4132.90322581,0,3344.83870968,0,3014.51612903,0,4172.25806452,0,3960.0,0,3779.03225806,0,4006.4516129,0,3172.58064516,0,3843.5483871,0,3363.5483871,0,3732.90322581,0,3849.67741935,0,4490.32258065,0,0,0,?
2018-01-30 09:38:31.544000,4132.90322581,0,4108.70967742,0,3308.06451613,0,2948.38709677,0,4115.16129032,0,3958.70967742,0,3778.06451613,0,3914.83870968,0,3112.58064516,0,3824.51612903,0,3346.4516129,0,3756.12903226,0,3852.25806452,0,4472.25806452,0,0,0,?
2018-01-30 09:38:31.545000,4064.83870968,0,4108.70967742,0,3303.5483871,0,2945.80645161,0,4077.09677419,0,3974.51612903,0,3831.29032258,0,3826.12903226,0,3060.0,0,3786.77419355,0,3301.61290323,0,3705.16129032,0,3804.51612903,0,4439.35483871,0,0,0,?
2018-01-30 09:38:31.559000,4110.96774194,0,4133.87096774,0,3334.19354839,0,2986.4516129,0,4101.61290323,0,4020.0,0,3928.06451613,0,3847.09677419,0,3159.67741935,0,3833.87096774,0,3421.61290323,0,3755.80645161,0,3808.70967742,0,4487.74193548,0,0,0,?
2018-01-30 09:38:31.560000,4087.41935484,0,4116.12903226,0,3337.09677419,0,3040.64516129,0,4125.16129032,0,4051.93548387,0,3886.12903226,0,3785.80645161,0,3172.90322581,0,3817.41935484,0,3442.90322581,0,3749.35483871,0,3846.77419355,0,4470.96774194,0,0,0,?
2018-01-30 09:38:31.575000,4106.4516129,0,4091.61290323,0,3365.16129032,0,3048.06451613,0,4078.70967742,0,4043.5483871,0,3908.38709677,0,3772.25806452,0,3159.35483871,0,3819.35483871,0,3448.06451613,0,3754.19354839,0,3810.0,0,4492.58064516,0,0,0,?
2018-01-30 09:38:31.576000,4102.58064516,0,4133.22580645,0,3431.29032258,0,3114.19354839,0,4173.5483871,0,4096.12903226,0,3982.58064516,0,3796.4516129,0,3256.12903226,0,3828.38709677,0,3522.25806452,0,3761.93548387,0,3841.93548387,0,4546.4516129,0,0,0,?
2018-01-30 09:38:31.590000,4090.0,0,4113.87096774,0,3482.90322581,0,3123.87096774,0,4134.51612903,0,4094.51612903,0,4013.5483871,0,3765.16129032,0,3300.0,0,3826.77419355,0,3526.12903226,0,3768.70967742,0,3847.74193548,0,4529.03225806,0,0,0,?
2018-01-30 09:38:31.590000,4101.61290323,0,4071.29032258,0,3417.41935484,0,3100.0,0,4107.74193548,0,4064.51612903,0,3973.5483871,0,3659.03225806,0,3241.61290323,0,3846.12903226,0,3489.67741935,0,3741.61290323,0,3852.90322581,0,4526.12903226,0,0,0,?
2018-01-30 09:38:31.607000,4100.32258065,0,4096.4516129,0,3455.80645161,0,3176.12903226,0,4119.03225806,0,4045.80645161,0,3947.74193548,0,3620.96774194,0,3263.87096774,0,3841.61290323,0,3550.96774194,0,3781.93548387,0,3875.48387097,0,4530.64516129,0,0,0,?
2018-01-30 09:38:31.608000,4070.0,0,4073.22580645,0,3533.22580645,0,3227.09677419,0,4154.19354839,0,4084.19354839,0,4021.93548387,0,3649.35483871,0,3309.67741935,0,3818.38709677,0,3616.12903226,0,3778.70967742,0,3913.5483871,0,4558.06451613,0,0,0,?
2018-01-30 09:38:31.623000,4120.64516129,0,4060.96774194,0,3470.96774194,0,3192.25806452,0,4139.35483871,0,4045.48387097,0,3955.48387097,0,3612.90322581,0,3295.16129032,0,3811.29032258,0,3600.0,0,3742.90322581,0,3913.22580645,0,4531.93548387,0,0,0,?
2018-01-30 09:38:31.623000,4093.5483871,0,4082.25806452,0,3514.83870968,0,3235.80645161,0,4102.25806452,0,4073.87096774,0,3911.93548387,0,3566.4516129,0,3285.80645161,0,3836.12903226,0,3616.4516129,0,3776.77419355,0,3891.93548387,0,4518.06451613,0,0,0,?
2018-01-30 09:38:31.639000,4088.06451613,0,4070.32258065,0,3488.70967742,0,3216.12903226,0,4110.32258065,0,4052.58064516,0,3958.38709677,0,3682.25806452,0,3298.06451613,0,3807.74193548,0,3644.19354839,0,3742.90322581,0,3881.29032258,0,4555.16129032,0,0,0,?
2018-01-30 09:38:31.640000,4110.96774194,0,4040.0,0,3536.77419355,0,3252.90322581,0,4132.25806452,0,4098.70967742,0,4004.19354839,0,3796.77419355,0,3323.87096774,0,3839.03225806,0,3684.83870968,0,3794.83870968,0,3900.64516129,0,4538.38709677,0,0,0,?
2018-01-30 09:38:31.652000,4064.83870968,0,4059.35483871,0,3597.09677419,0,3353.87096774,0,4194.51612903,0,4074.51612903,0,4042.90322581,0,3850.96774194,0,3426.12903226,0,3869.03225806,0,3745.80645161,0,3824.51612903,0,3947.09677419,0,4552.90322581,0,0,0,?
2018-01-30 09:38:31.654000,4118.38709677,0,4038.38709677,0,3552.25806452,0,3338.38709677,0,4140.64516129,0,4086.77419355,0,3985.80645161,0,3800.64516129,0,3414.19354839,0,3854.51612903,0,3713.22580645,0,3790.0,0,3930.64516129,0,4538.06451613,0,0,0,?
2018-01-30 09:38:31.669000,4105.80645161,0,4059.03225806,0,3553.22580645,0,3339.67741935,0,4109.03225806,0,4047.74193548,0,3971.61290323,0,3777.41935484,0,3364.51612903,0,3834.19354839,0,3693.87096774,0,3809.35483871,0,3910.32258065,0,4512.90322581,0,0,0,?
2018-01-30 09:38:31.672000,4099.67741935,0,4040.64516129,0,3638.70967742,0,3370.32258065,0,4106.12903226,0,4085.80645161,0,4053.5483871,0,3801.61290323,0,3475.16129032,0,3871.29032258,0,3752.58064516,0,3800.32258065,0,3951.93548387,0,4549.67741935,0,0,0,?
2018-01-30 09:38:31.685000,4133.87096774,0,4038.06451613,0,3630.96774194,0,3376.4516129,0,4128.06451613,0,4099.03225806,0,4095.80645161,0,3750.96774194,0,3464.83870968,0,3866.4516129,0,3786.77419355,0,3776.4516129,0,3960.0,0,4546.77419355,0,0,0,?
2018-01-30 09:38:31.686000,4066.4516129,0,4059.67741935,0,3612.90322581,0,3407.09677419,0,4116.12903226,0,4068.06451613,0,4071.61290323,0,3767.41935484,0,3422.90322581,0,3858.38709677,0,3813.87096774,0,3777.41935484,0,3973.5483871,0,4563.5483871,0,0,0,?
2018-01-30 09:38:31.701000,4124.19354839,0,4056.77419355,0,3606.4516129,0,3395.48387097,0,4138.70967742,0,4049.67741935,0,4005.16129032,0,3721.61290323,0,3459.03225806,0,3860.0,0,3774.83870968,0,3783.87096774,0,3957.09677419,0,4517.09677419,0,0,0,?
2018-01-30 09:38:31.702000,4079.35483871,0,4016.77419355,0,3610.96774194,0,3414.83870968,0,4131.93548387,0,4056.4516129,0,4000.96774194,0,3727.41935484,0,3468.06451613,0,3832.58064516,0,3806.12903226,0,3779.35483871,0,3977.74193548,0,4529.03225806,0,0,0,?
2018-01-30 09:38:31.717000,4075.48387097,0,4026.77419355,0,3597.41935484,0,3396.12903226,0,4104.51612903,0,4060.64516129,0,4001.61290323,0,3673.87096774,0,3430.64516129,0,3824.51612903,0,3809.67741935,0,3725.48387097,0,3982.25806452,0,4529.03225806,0,0,0,?
2018-01-30 09:38:31.718000,4092.25806452,0,3994.51612903,0,3552.90322581,0,3380.0,0,4064.83870968,0,4063.87096774,0,3955.48387097,0,3637.74193548,0,3403.22580645,0,3812.25806452,0,3766.4516129,0,3722.58064516,0,3980.0,0,4500.0,0,0,0,?
2018-01-30 09:38:31.732000,4072.90322581,0,3969.67741935,0,3557.41935484,0,3394.51612903,0,4112.58064516,0,4062.25806452,0,3965.16129032,0,3610.64516129,0,3467.09677419,0,3818.70967742,0,3820.0,0,3680.0,0,3980.64516129,0,4478.06451613,0,0,0,?
2018-01-30 09:38:31.733000,4089.03225806,0,3995.80645161,0,3597.09677419,0,3425.80645161,0,4100.0,0,4033.87096774,0,4076.12903226,0,3585.48387097,0,3489.03225806,0,3844.19354839,0,3853.87096774,0,3715.48387097,0,3974.51612903,0,4494.83870968,0,0,0,?
2018-01-30 09:38:31.748000,4083.5483871,0,4046.12903226,0,3671.61290323,0,3490.64516129,0,4116.12903226,0,4074.51612903,0,4197.09677419,0,3650.64516129,0,3545.16129032,0,3843.87096774,0,3947.09677419,0,3742.25806452,0,3974.19354839,0,4492.58064516,0,0,0,?
2018-01-30 09:38:31.749000,4114.19354839,0,4049.03225806,0,3723.87096774,0,3565.48387097,0,4139.03225806,0,4090.0,0,4214.51612903,0,3631.29032258,0,3593.5483871,0,3884.19354839,0,3995.16129032,0,3741.93548387,0,4020.96774194,0,4562.25806452,0,0,0,?
2018-01-30 09:38:31.764000,4090.64516129,0,3986.77419355,0,3616.4516129,0,3492.90322581,0,4081.93548387,0,4024.19354839,0,4127.74193548,0,3565.16129032,0,3551.61290323,0,3871.29032258,0,3933.5483871,0,3732.58064516,0,3975.80645161,0,4460.96774194,0,0,0,?
2018-01-30 09:38:31.765000,4106.77419355,0,3997.41935484,0,3613.5483871,0,3490.96774194,0,4083.5483871,0,4035.48387097,0,4202.58064516,0,3583.87096774,0,3555.48387097,0,3871.93548387,0,3985.48387097,0,3713.87096774,0,3977.41935484,0,4447.74193548,0,0,0,?
2018-01-30 09:38:31.780000,4114.83870968,0,4009.35483871,0,3710.32258065,0,3640.0,0,4201.93548387,0,4075.48387097,0,4270.64516129,0,3656.4516129,0,3630.96774194,0,3881.93548387,0,4078.70967742,0,3791.29032258,0,4012.58064516,0,4514.51612903,0,0,0,?
2018-01-30 09:38:31.781000,4080.96774194,0,4023.5483871,0,3612.90322581,0,3662.58064516,0,4145.16129032,0,4043.5483871,0,4175.48387097,0,3587.74193548,0,3600.32258065,0,3883.5483871,0,4060.32258065,0,3770.0,0,4047.74193548,0,4468.38709677,0,0,0,?
2018-01-30 09:38:31.794000,4097.74193548,0,3999.67741935,0,3600.96774194,0,3617.41935484,0,4130.32258065,0,3997.41935484,0,4133.5483871,0,3585.48387097,0,3660.0,0,3871.29032258,0,4083.22580645,0,3780.0,0,4004.51612903,0,4470.0,0,0,0,?
2018-01-30 09:38:31.795000,4115.80645161,0,4049.67741935,0,3697.41935484,0,3650.64516129,0,4165.48387097,0,4075.16129032,0,4205.16129032,0,3664.51612903,0,3755.48387097,0,3888.38709677,0,4177.74193548,0,3823.5483871,0,4064.51612903,0,4522.90322581,0,0,0,?
2018-01-30 09:38:31.811000,4071.93548387,0,4000.32258065,0,3746.4516129,0,3692.90322581,0,4154.83870968,0,4110.96774194,0,4151.29032258,0,3650.96774194,0,3775.80645161,0,3890.32258065,0,4236.77419355,0,3812.90322581,0,4063.5483871,0,4504.19354839,0,0,0,?
2018-01-30 09:38:31.812000,4096.12903226,0,4028.06451613,0,3679.67741935,0,3711.61290323,0,4117.74193548,0,4179.03225806,0,4081.29032258,0,3572.58064516,0,3754.51612903,0,3860.64516129,0,4212.90322581,0,3850.64516129,0,4062.58064516,0,4497.41935484,0,0,0,?
2018-01-30 09:38:31.827000,4110.0,0,4007.74193548,0,3736.77419355,0,3718.06451613,0,4145.48387097,0,4141.29032258,0,4058.70967742,0,3557.41935484,0,3759.67741935,0,3878.06451613,0,4228.38709677,0,3836.4516129,0,4081.29032258,0,4477.74193548,0,0,0,?
2018-01-30 09:38:31.828000,4091.61290323,0,4016.12903226,0,3730.32258065,0,3792.90322581,0,4160.64516129,0,4167.09677419,0,4070.32258065,0,3579.03225806,0,3786.77419355,0,3896.12903226,0,4252.58064516,0,3868.70967742,0,4053.22580645,0,4485.80645161,0,0,0,?
2018-01-30 09:38:31.843000,4139.03225806,0,4015.80645161,0,3743.87096774,0,3778.70967742,0,4168.70967742,0,4163.22580645,0,4064.19354839,0,3550.0,0,3779.35483871,0,3890.32258065,0,4270.32258065,0,3851.29032258,0,4072.25806452,0,4466.12903226,0,0,0,?
2018-01-30 09:38:31.844000,4091.93548387,0,3986.4516129,0,3787.74193548,0,3842.90322581,0,4165.48387097,0,4177.74193548,0,4064.51612903,0,3583.87096774,0,3845.48387097,0,3907.09677419,0,4301.93548387,0,3844.83870968,0,4090.96774194,0,4521.61290323,0,0,0,?
2018-01-30 09:38:31.859000,4104.51612903,0,3971.29032258,0,3743.87096774,0,3828.70967742,0,4155.16129032,0,4162.25806452,0,4070.96774194,0,3526.77419355,0,3865.16129032,0,3875.16129032,0,4262.90322581,0,3884.19354839,0,4068.38709677,0,4498.06451613,0,0,0,?
2018-01-30 09:38:31.860000,4124.19354839,0,4004.19354839,0,3790.96774194,0,3840.32258065,0,4184.19354839,0,4138.38709677,0,4017.41935484,0,3493.87096774,0,3853.5483871,0,3877.41935484,0,4300.96774194,0,3898.06451613,0,4071.29032258,0,4484.19354839,0,0,0,?
2018-01-30 09:38:31.874000,4097.09677419,0,3975.48387097,0,3847.74193548,0,3907.09677419,0,4194.19354839,0,4173.5483871,0,4047.41935484,0,3595.80645161,0,3942.90322581,0,3911.61290323,0,4365.16129032,0,3937.09677419,0,4097.74193548,0,4521.29032258,0,0,0,?
2018-01-30 09:38:31.875000,4133.87096774,0,3976.77419355,0,3804.19354839,0,3947.09677419,0,4188.38709677,0,4177.09677419,0,4039.03225806,0,3629.35483871,0,3937.74193548,0,3917.74193548,0,4369.03225806,0,3920.64516129,0,4108.38709677,0,4550.96774194,0,0,0,?
2018-01-30 09:38:31.889000,4099.03225806,0,3987.09677419,0,3777.09677419,0,3895.80645161,0,4172.90322581,0,4110.64516129,0,3964.19354839,0,3513.5483871,0,3937.74193548,0,3887.41935484,0,4336.12903226,0,3944.19354839,0,4072.25806452,0,4451.93548387,0,0,0,?
2018-01-30 09:38:31.890000,4125.48387097,0,4010.32258065,0,3802.90322581,0,3957.09677419,0,4165.80645161,0,4174.51612903,0,3981.93548387,0,3562.25806452,0,3997.09677419,0,3927.09677419,0,4369.03225806,0,3956.77419355,0,4113.5483871,0,4478.06451613,0,0,0,?
2018-01-30 09:38:31.906000,4105.16129032,0,3988.06451613,0,3862.58064516,0,4049.35483871,0,4241.93548387,0,4208.38709677,0,4052.25806452,0,3672.25806452,0,4061.93548387,0,3916.77419355,0,4407.74193548,0,3983.87096774,0,4102.25806452,0,4527.41935484,0,0,0,?
2018-01-30 09:38:31.907000,4111.93548387,0,3995.16129032,0,3870.96774194,0,4057.74193548,0,4190.96774194,0,4142.90322581,0,4047.41935484,0,3634.51612903,0,4018.06451613,0,3940.0,0,4428.06451613,0,3983.22580645,0,4133.22580645,0,4488.38709677,0,0,0,?
2018-01-30 09:38:31.924000,4098.06451613,0,3964.19354839,0,3811.29032258,0,3967.41935484,0,4169.03225806,0,4114.51612903,0,3988.38709677,0,3594.83870968,0,3996.4516129,0,3906.77419355,0,4372.25806452,0,3940.96774194,0,4121.29032258,0,4449.03225806,0,0,0,?
2018-01-30 09:38:31.924000,4129.03225806,0,3970.96774194,0,3863.87096774,0,4070.0,0,4200.0,0,4132.25806452,0,4041.61290323,0,3654.83870968,0,4051.61290323,0,3943.22580645,0,4398.06451613,0,3995.48387097,0,4146.4516129,0,4499.35483871,0,0,0,?
2018-01-30 09:38:31.939000,4136.12903226,0,3941.61290323,0,3927.09677419,0,4129.67741935,0,4212.58064516,0,4184.51612903,0,4050.64516129,0,3722.58064516,0,4118.38709677,0,3932.58064516,0,4490.64516129,0,3983.5483871,0,4134.51612903,0,4526.4516129,0,0,0,?
2018-01-30 09:38:31.939000,4145.16129032,0,3937.74193548,0,3810.64516129,0,4039.03225806,0,4135.16129032,0,4149.03225806,0,4047.74193548,0,3610.32258065,0,4002.25806452,0,3917.41935484,0,4409.67741935,0,3956.4516129,0,4128.70967742,0,4490.32258065,0,0,0,?
2018-01-30 09:38:31.954000,4090.64516129,0,3910.0,0,3795.80645161,0,3995.48387097,0,4144.51612903,0,4116.4516129,0,4003.87096774,0,3560.0,0,3960.0,0,3893.87096774,0,4354.83870968,0,3907.74193548,0,4082.25806452,0,4451.93548387,0,0,0,?
2018-01-30 09:38:31.956000,4140.0,0,3902.90322581,0,3815.48387097,0,4070.96774194,0,4186.4516129,0,4155.48387097,0,4030.96774194,0,3606.4516129,0,4014.51612903,0,3934.19354839,0,4398.06451613,0,3934.19354839,0,4111.29032258,0,4469.67741935,0,0,0,?
2018-01-30 09:38:31.969000,4116.77419355,0,3886.12903226,0,3841.61290323,0,4071.93548387,0,4169.03225806,0,4123.5483871,0,3984.83870968,0,3556.77419355,0,4007.41935484,0,3916.4516129,0,4388.38709677,0,3941.93548387,0,4096.77419355,0,4486.12903226,0,0,0,?
2018-01-30 09:38:31.972000,4098.70967742,0,3870.64516129,0,3795.80645161,0,3993.22580645,0,4139.67741935,0,4125.16129032,0,3999.03225806,0,3526.12903226,0,3970.32258065,0,3900.96774194,0,4340.96774194,0,3874.51612903,0,4079.67741935,0,4421.93548387,0,0,0,?
2018-01-30 09:38:31.985000,4098.06451613,0,3871.61290323,0,3775.16129032,0,4001.93548387,0,4139.35483871,0,4127.74193548,0,3943.87096774,0,3525.48387097,0,3980.0,0,3895.80645161,0,4365.16129032,0,3867.74193548,0,4077.41935484,0,4381.29032258,0,0,0,?
2018-01-30 09:38:31.987000,4100.32258065,0,3844.83870968,0,3808.70967742,0,4046.77419355,0,4163.5483871,0,4121.61290323,0,3939.67741935,0,3564.51612903,0,3959.35483871,0,3879.35483871,0,4434.51612903,0,3899.67741935,0,4071.29032258,0,4314.51612903,0,0,0,?
2018-01-30 09:38:31.999000,4095.80645161,0,3860.64516129,0,3782.25806452,0,3977.09677419,0,4140.32258065,0,4081.93548387,0,3914.83870968,0,3514.51612903,0,3981.93548387,0,3875.16129032,0,4441.93548387,0,3900.0,0,4111.61290323,0,4242.25806452,0,0,0,?
2018-01-30 09:38:32,4069.03225806,0,3863.22580645,0,3790.96774194,0,3958.06451613,0,4112.58064516,0,4088.38709677,0,3917.09677419,0,3499.03225806,0,3942.90322581,0,3896.4516129,0,4393.87096774,0,3905.48387097,0,4089.35483871,0,4203.87096774,0,0,0,?
