Timestamp,F3 Value,F3 Quality,FC5 Value,FC5 Quality,F7 Value,F7 Quality,T7 Value,T7 Quality,P7 Value,P7 Quality,O1 Value,O1 Quality,O2 Value,O2 Quality,P8 Value,P8 Quality,T8 Value,T8 Quality,F8 Value,F8 Quality,AF4 Value,AF4 Quality,FC6 Value,FC6 Quality,F4 Value,F4 Quality,AF3 Value,AF3 Quality,X Value,Y Value,Z Value
2018-01-30 09:50:08.272000,4149.03225806,0,4231.61290323,0,4165.48387097,0,4218.06451613,0,4195.80645161,0,4207.09677419,0,4198.06451613,0,4176.77419355,0,4297.74193548,0,4221.61290323,0,4287.41935484,0,4250.32258065,0,4257.41935484,0,4179.03225806,0,0,0,?
2018-01-30 09:50:08.274000,4149.03225806,0,4231.61290323,0,4165.48387097,0,4218.06451613,0,4195.80645161,0,4207.09677419,0,4198.06451613,0,4176.77419355,0,4297.74193548,0,4221.61290323,0,4287.41935484,0,4250.32258065,0,4257.41935484,0,4179.03225806,0,0,0,?
2018-01-30 09:50:08.275000,4149.03225806,0,4231.61290323,0,4165.48387097,0,4218.06451613,0,4195.80645161,0,4207.09677419,0,4198.06451613,0,4176.77419355,0,4297.74193548,0,4221.61290323,0,4287.41935484,0,4250.32258065,0,4257.41935484,0,4179.03225806,0,0,0,?
2018-01-30 09:50:08.276000,4149.03225806,0,4231.61290323,0,4165.48387097,0,4218.06451613,0,4195.80645161,0,4207.09677419,0,4198.06451613,0,4176.77419355,0,4297.74193548,0,4221.61290323,0,4287.41935484,0,4250.32258065,0,4257.41935484,0,4179.03225806,0,0,0,?
2018-01-30 09:50:08.286000,4149.03225806,0,4231.61290323,0,4165.48387097,0,4218.06451613,0,4195.80645161,0,4207.09677419,0,4198.06451613,0,4176.77419355,0,4297.74193548,0,4221.61290323,0,4287.41935484,0,4250.32258065,0,4257.41935484,0,4179.03225806,0,0,0,?
2018-01-30 09:50:08.292000,4149.03225806,0,4231.61290323,0,4165.48387097,0,4218.06451613,0,4195.80645161,0,4207.09677419,0,4198.06451613,0,4176.77419355,0,4297.74193548,0,4221.61290323,0,4287.41935484,0,4250.32258065,0,4257.41935484,0,4179.03225806,0,0,0,?
2018-01-30 09:50:08.303000,4149.03225806,0,4231.61290323,0,4165.48387097,0,4169.67741935,0,4209.67741935,0,4207.09677419,0,4198.06451613,0,4136.12903226,0,4255.80645161,0,4221.61290323,0,4287.41935484,0,4250.32258065,0,4257.41935484,0,4179.03225806,0,0,0,?
2018-01-30 09:50:08.309000,4181.93548387,0,4230.96774194,0,4120.96774194,0,4169.67741935,0,4209.67741935,0,4191.29032258,0,4214.19354839,0,4136.12903226,0,4255.80645161,0,4207.74193548,0,4262.25806452,0,4267.09677419,0,4261.93548387,0,4208.06451613,0,0,0,?
2018-01-30 09:50:08.320000,4181.93548387,0,4230.96774194,0,4120.96774194,0,4169.67741935,0,4209.67741935,0,4191.29032258,0,4214.19354839,0,4136.12903226,0,4255.80645161,0,4207.74193548,0,4262.25806452,0,4267.09677419,0,4261.93548387,0,4208.06451613,0,0,0,?
2018-01-30 09:50:08.322000,4181.93548387,0,4230.96774194,0,4120.96774194,0,4169.67741935,0,4209.67741935,0,4191.29032258,0,4214.19354839,0,4136.12903226,0,4255.80645161,0,4207.74193548,0,4262.25806452,0,4267.09677419,0,4261.93548387,0,4208.06451613,0,0,0,?
2018-01-30 09:50:08.336000,4181.93548387,0,4230.96774194,0,4120.96774194,0,4169.67741935,0,4209.67741935,0,4191.29032258,0,4214.19354839,0,4136.12903226,0,4255.80645161,0,4207.74193548,0,4262.25806452,0,4267.09677419,0,4261.93548387,0,4208.06451613,0,0,0,?
2018-01-30 09:50:08.339000,4181.93548387,0,4230.96774194,0,4120.96774194,0,4169.67741935,0,4209.67741935,0,4191.29032258,0,4214.19354839,0,4136.12903226,0,4255.80645161,0,4207.74193548,0,4262.25806452,0,4267.09677419,0,4261.93548387,0,4208.06451613,0,0,0,?
2018-01-30 09:50:08.353000,4181.93548387,0,4230.96774194,0,4120.96774194,0,4169.67741935,0,4209.67741935,0,4191.29032258,0,4214.19354839,0,4136.12903226,0,4255.80645161,0,4207.74193548,0,4262.25806452,0,4267.09677419,0,4261.93548387,0,4208.06451613,0,0,0,?
2018-01-30 09:50:08.354000,4181.93548387,0,4230.96774194,0,4120.96774194,0,4169.67741935,0,4209.67741935,0,4191.29032258,0,4214.19354839,0,4136.12903226,0,4255.80645161,0,4207.74193548,0,4262.25806452,0,4267.09677419,0,4261.93548387,0,4208.06451613,0,0,0,?
2018-01-30 09:50:08.367000,4181.93548387,0,4230.96774194,0,4120.96774194,0,4169.67741935,0,4209.67741935,0,4191.29032258,0,4214.19354839,0,4136.12903226,0,4255.80645161,0,4207.74193548,0,4262.25806452,0,4267.09677419,0,4261.93548387,0,4208.06451613,0,0,0,?
2018-01-30 09:50:08.371000,4181.93548387,0,4230.96774194,0,4120.96774194,0,4169.67741935,0,4209.67741935,0,4191.29032258,0,4214.19354839,0,4136.12903226,0,4255.80645161,0,4207.74193548,0,4262.25806452,0,4267.09677419,0,4261.93548387,0,4208.06451613,0,0,0,?
2018-01-30 09:50:08.386000,4181.93548387,0,4230.96774194,0,4120.96774194,0,4169.67741935,0,4209.67741935,0,4191.29032258,0,4214.19354839,0,4136.12903226,0,4255.80645161,0,4207.74193548,0,4262.25806452,0,4267.09677419,0,4261.93548387,0,4208.06451613,0,0,0,?
2018-01-30 09:50:08.387000,4185.48387097,0,4226.4516129,0,4116.12903226,0,4175.16129032,0,4167.74193548,0,4185.80645161,0,4189.03225806,0,4165.16129032,0,4211.61290323,0,4229.67741935,0,4255.16129032,0,4239.03225806,0,4226.12903226,0,4151.29032258,0,0,0,?
2018-01-30 09:50:08.398000,4185.48387097,0,4226.4516129,0,4116.12903226,0,4175.16129032,0,4167.74193548,0,4185.80645161,0,4189.03225806,0,4165.16129032,0,4211.61290323,0,4229.67741935,0,4255.16129032,0,4239.03225806,0,4226.12903226,0,4151.29032258,0,0,0,?
2018-01-30 09:50:08.401000,4185.48387097,0,4226.4516129,0,4116.12903226,0,4175.16129032,0,4167.74193548,0,4185.80645161,0,4189.03225806,0,4165.16129032,0,4211.61290323,0,4229.67741935,0,4255.16129032,0,4239.03225806,0,4226.12903226,0,4151.29032258,0,0,0,?
2018-01-30 09:50:08.412000,4185.48387097,0,4226.4516129,0,4116.12903226,0,4175.16129032,0,4167.74193548,0,4185.80645161,0,4189.03225806,0,4165.16129032,0,4211.61290323,0,4229.67741935,0,4255.16129032,0,4239.03225806,0,4226.12903226,0,4151.29032258,0,0,0,?
2018-01-30 09:50:08.418000,4185.48387097,0,4226.4516129,0,4116.12903226,0,4175.16129032,0,4167.74193548,0,4185.80645161,0,4189.03225806,0,4165.16129032,0,4211.61290323,0,4229.67741935,0,4255.16129032,0,4239.03225806,0,4226.12903226,0,4151.29032258,0,0,0,?
2018-01-30 09:50:08.428000,4185.48387097,0,4226.4516129,0,4116.12903226,0,4175.16129032,0,4167.74193548,0,4185.80645161,0,4189.03225806,0,4165.16129032,0,4211.61290323,0,4229.67741935,0,4255.16129032,0,4239.03225806,0,4226.12903226,0,4151.29032258,0,0,0,?
2018-01-30 09:50:08.438000,4185.48387097,0,4226.4516129,0,4116.12903226,0,4175.16129032,0,4167.74193548,0,4185.80645161,0,4189.03225806,0,4165.16129032,0,4211.61290323,0,4229.67741935,0,4255.16129032,0,4239.03225806,0,4226.12903226,0,4151.29032258,0,0,0,?
2018-01-30 09:50:08.444000,4185.48387097,0,4226.4516129,0,4116.12903226,0,4175.16129032,0,4167.74193548,0,4185.80645161,0,4189.03225806,0,4165.16129032,0,4211.61290323,0,4229.67741935,0,4255.16129032,0,4239.03225806,0,4226.12903226,0,4151.29032258,0,0,0,?
2018-01-30 09:50:08.449000,4185.48387097,0,4226.4516129,0,4116.12903226,0,4175.16129032,0,4167.74193548,0,4185.80645161,0,4189.03225806,0,4165.16129032,0,4211.61290323,0,4229.67741935,0,4255.16129032,0,4239.03225806,0,4226.12903226,0,4151.29032258,0,0,0,?
2018-01-30 09:50:08.459000,4185.48387097,0,4226.4516129,0,4116.12903226,0,4175.16129032,0,4167.74193548,0,4185.80645161,0,4189.03225806,0,4165.16129032,0,4211.61290323,0,4229.67741935,0,4255.16129032,0,4239.03225806,0,4226.12903226,0,4151.29032258,0,0,0,?
2018-01-30 09:50:08.464000,4185.48387097,0,4226.4516129,0,4116.12903226,0,4175.16129032,0,4167.74193548,0,4185.80645161,0,4189.03225806,0,4165.16129032,0,4211.61290323,0,4229.67741935,0,4255.16129032,0,4239.03225806,0,4226.12903226,0,4151.29032258,0,0,0,?
2018-01-30 09:50:08.475000,4185.48387097,0,4226.4516129,0,4116.12903226,0,4175.16129032,0,4167.74193548,0,4185.80645161,0,4189.03225806,0,4165.16129032,0,4211.61290323,0,4229.67741935,0,4255.16129032,0,4239.03225806,0,4226.12903226,0,4151.29032258,0,0,0,?
2018-01-30 09:50:08.481000,4185.48387097,0,4226.4516129,0,4116.12903226,0,4175.16129032,0,4167.74193548,0,4185.80645161,0,4189.03225806,0,4165.16129032,0,4211.61290323,0,4229.67741935,0,4255.16129032,0,4239.03225806,0,4226.12903226,0,4151.29032258,0,0,0,?
2018-01-30 09:50:08.492000,4185.48387097,0,4226.4516129,0,4116.12903226,0,4175.16129032,0,4167.74193548,0,4185.80645161,0,4189.03225806,0,4165.16129032,0,4211.61290323,0,4229.67741935,0,4255.16129032,0,4239.03225806,0,4226.12903226,0,4151.29032258,0,0,0,?
2018-01-30 09:50:08.499000,4185.48387097,0,4226.4516129,0,4116.12903226,0,4175.16129032,0,4167.74193548,0,4185.80645161,0,4189.03225806,0,4165.16129032,0,4211.61290323,0,4229.67741935,0,4255.16129032,0,4239.03225806,0,4226.12903226,0,4151.29032258,0,0,0,?
2018-01-30 09:50:08.507000,4185.48387097,0,4226.4516129,0,4116.12903226,0,4175.16129032,0,4167.74193548,0,4185.80645161,0,4189.03225806,0,4165.16129032,0,4211.61290323,0,4229.67741935,0,4255.16129032,0,4239.03225806,0,4226.12903226,0,4151.29032258,0,0,0,?
2018-01-30 09:50:08.512000,4185.48387097,0,4226.4516129,0,4116.12903226,0,4175.16129032,0,4167.74193548,0,4185.80645161,0,4189.03225806,0,4165.16129032,0,4211.61290323,0,4229.67741935,0,4255.16129032,0,4239.03225806,0,4226.12903226,0,4151.29032258,0,0,0,?
2018-01-30 09:50:08.521000,4185.48387097,0,4226.4516129,0,4116.12903226,0,4175.16129032,0,4167.74193548,0,4185.80645161,0,4189.03225806,0,4165.16129032,0,4211.61290323,0,4229.67741935,0,4255.16129032,0,4239.03225806,0,4226.12903226,0,4151.29032258,0,0,0,?
2018-01-30 09:50:08.527000,4185.48387097,0,4226.4516129,0,4116.12903226,0,4175.16129032,0,4167.74193548,0,4185.80645161,0,4189.03225806,0,4165.16129032,0,4211.61290323,0,4229.67741935,0,4255.16129032,0,4239.03225806,0,4226.12903226,0,4151.29032258,0,0,0,?
2018-01-30 09:50:08.538000,4185.48387097,0,4226.4516129,0,4116.12903226,0,4175.16129032,0,4167.74193548,0,4185.80645161,0,4189.03225806,0,4165.16129032,0,4211.61290323,0,4229.67741935,0,4255.16129032,0,4239.03225806,0,4226.12903226,0,4151.29032258,0,0,0,?
2018-01-30 09:50:08.546000,4185.48387097,0,4226.4516129,0,4116.12903226,0,4175.16129032,0,4167.74193548,0,4185.80645161,0,4189.03225806,0,4165.16129032,0,4211.61290323,0,4229.67741935,0,4255.16129032,0,4239.03225806,0,4226.12903226,0,4151.29032258,0,0,0,?
2018-01-30 09:50:08.554000,4176.77419355,0,4237.74193548,0,4176.4516129,0,4243.87096774,0,4190.0,0,4200.32258065,0,4198.38709677,0,4173.5483871,0,4285.48387097,0,4208.70967742,0,4288.38709677,0,4238.06451613,0,4271.93548387,0,4170.64516129,0,0,0,?
2018-01-30 09:50:08.559000,4191.29032258,0,4236.77419355,0,4099.03225806,0,4141.29032258,0,4209.35483871,0,4186.4516129,0,4195.48387097,0,4157.41935484,0,4247.09677419,0,4236.12903226,0,4252.58064516,0,4247.74193548,0,4246.4516129,0,4160.0,0,0,0,?
2018-01-30 09:50:08.570000,4164.51612903,0,4233.5483871,0,4177.09677419,0,4196.4516129,0,4199.67741935,0,4163.22580645,0,4210.32258065,0,4201.93548387,0,4277.09677419,0,4228.06451613,0,4294.51612903,0,4242.25806452,0,4260.32258065,0,4170.96774194,0,0,0,?
2018-01-30 09:50:08.575000,4204.83870968,0,4200.32258065,0,4146.77419355,0,4242.58064516,0,4179.35483871,0,4207.74193548,0,4227.09677419,0,4163.87096774,0,4264.19354839,0,4228.70967742,0,4295.80645161,0,4233.5483871,0,4260.64516129,0,4187.41935484,0,0,0,?
2018-01-30 09:50:08.586000,4167.74193548,0,4228.38709677,0,4152.25806452,0,4170.0,0,4162.90322581,0,4187.41935484,0,4220.96774194,0,4178.06451613,0,4210.64516129,0,4230.64516129,0,4240.32258065,0,4258.06451613,0,4221.61290323,0,4166.77419355,0,0,0,?
2018-01-30 09:50:08.590000,4188.06451613,0,4219.03225806,0,4198.70967742,0,4218.38709677,0,4182.90322581,0,4207.74193548,0,4226.77419355,0,4198.06451613,0,4278.70967742,0,4217.41935484,0,4291.29032258,0,4251.93548387,0,4269.35483871,0,4191.29032258,0,0,0,?
2018-01-30 09:50:08.603000,4228.70967742,0,4229.67741935,0,4144.83870968,0,4183.22580645,0,4161.93548387,0,4201.93548387,0,4174.83870968,0,4166.4516129,0,4206.4516129,0,4243.22580645,0,4260.96774194,0,4261.29032258,0,4243.87096774,0,4206.77419355,0,0,0,?
2018-01-30 09:50:08.607000,4204.83870968,0,4199.03225806,0,4165.48387097,0,4243.5483871,0,4190.64516129,0,4204.51612903,0,4238.70967742,0,4195.16129032,0,4249.35483871,0,4203.22580645,0,4258.70967742,0,4238.06451613,0,4249.67741935,0,4181.93548387,0,0,0,?
2018-01-30 09:50:08.617000,4225.80645161,0,4192.25806452,0,4123.87096774,0,4189.67741935,0,4163.87096774,0,4186.4516129,0,4222.25806452,0,4156.77419355,0,4258.38709677,0,4199.67741935,0,4253.5483871,0,4253.22580645,0,4255.80645161,0,4172.58064516,0,0,0,?
2018-01-30 09:50:08.622000,4220.96774194,0,4208.38709677,0,4142.90322581,0,4209.03225806,0,4204.83870968,0,4184.83870968,0,4185.48387097,0,4134.51612903,0,4230.32258065,0,4205.48387097,0,4234.51612903,0,4219.67741935,0,4212.58064516,0,4149.03225806,0,0,0,?
2018-01-30 09:50:08.633000,4187.09677419,0,4213.5483871,0,4175.16129032,0,4256.4516129,0,4193.22580645,0,4170.32258065,0,4245.48387097,0,4189.03225806,0,4270.64516129,0,4204.51612903,0,4275.48387097,0,4250.32258065,0,4259.03225806,0,4177.41935484,0,0,0,?
2018-01-30 09:50:08.638000,4216.77419355,0,4209.67741935,0,4125.48387097,0,4167.41935484,0,4174.83870968,0,4209.35483871,0,4225.16129032,0,4132.90322581,0,4242.90322581,0,4235.48387097,0,4232.25806452,0,4243.22580645,0,4233.22580645,0,4183.87096774,0,0,0,?
2018-01-30 09:50:08.650000,4183.22580645,0,4209.03225806,0,4151.29032258,0,4222.25806452,0,4197.41935484,0,4161.61290323,0,4219.35483871,0,4157.09677419,0,4232.58064516,0,4224.51612903,0,4245.16129032,0,4230.96774194,0,4219.67741935,0,4189.03225806,0,0,0,?
2018-01-30 09:50:08.654000,4222.90322581,0,4243.22580645,0,4153.22580645,0,4223.87096774,0,4180.32258065,0,4161.61290323,0,4223.87096774,0,4160.64516129,0,4202.90322581,0,4236.12903226,0,4251.29032258,0,4250.96774194,0,4240.64516129,0,4208.70967742,0,0,0,?
2018-01-30 09:50:08.671000,4241.61290323,0,4216.4516129,0,4132.58064516,0,4182.25806452,0,4207.41935484,0,4197.74193548,0,4187.41935484,0,4170.64516129,0,4193.87096774,0,4201.93548387,0,4198.38709677,0,4220.96774194,0,4200.64516129,0,4150.0,0,0,0,?
2018-01-30 09:50:08.672000,4210.32258065,0,4215.48387097,0,4190.32258065,0,4210.0,0,4172.25806452,0,4201.61290323,0,4214.19354839,0,4158.38709677,0,4252.90322581,0,4220.32258065,0,4224.51612903,0,4248.06451613,0,4225.80645161,0,4206.77419355,0,0,0,?
2018-01-30 09:50:08.681000,4238.38709677,0,4198.06451613,0,4133.5483871,0,4182.58064516,0,4203.5483871,0,4184.19354839,0,4199.35483871,0,4116.12903226,0,4170.0,0,4184.19354839,0,4197.74193548,0,4198.38709677,0,4207.41935484,0,4143.5483871,0,0,0,?
2018-01-30 09:50:08.686000,4237.09677419,0,4240.96774194,0,4146.77419355,0,4223.22580645,0,4185.16129032,0,4193.22580645,0,4215.48387097,0,4129.67741935,0,4204.83870968,0,4184.51612903,0,4212.25806452,0,4209.67741935,0,4209.67741935,0,4154.19354839,0,0,0,?
2018-01-30 09:50:08.697000,4233.5483871,0,4243.5483871,0,4174.83870968,0,4244.83870968,0,4172.90322581,0,4197.09677419,0,4232.90322581,0,4146.4516129,0,4221.93548387,0,4203.5483871,0,4195.48387097,0,4228.70967742,0,4243.22580645,0,4202.58064516,0,0,0,?
2018-01-30 09:50:08.701000,4239.67741935,0,4192.58064516,0,4099.67741935,0,4166.77419355,0,4197.09677419,0,4186.77419355,0,4168.38709677,0,4118.70967742,0,4178.06451613,0,4205.80645161,0,4209.03225806,0,4234.51612903,0,4205.16129032,0,4142.25806452,0,0,0,?
2018-01-30 09:50:08.712000,4193.87096774,0,4127.09677419,0,4200.96774194,0,4244.19354839,0,4173.22580645,0,4200.32258065,0,4233.5483871,0,4147.09677419,0,4241.61290323,0,4192.25806452,0,4230.96774194,0,4228.38709677,0,4238.70967742,0,4210.0,0,0,0,?
2018-01-30 09:50:08.719000,4251.93548387,0,4128.70967742,0,4143.5483871,0,4158.06451613,0,4196.4516129,0,4186.12903226,0,4171.29032258,0,4119.67741935,0,4129.35483871,0,4185.80645161,0,4187.09677419,0,4199.67741935,0,4222.25806452,0,4159.35483871,0,0,0,?
2018-01-30 09:50:08.727000,4239.03225806,0,4145.80645161,0,4168.38709677,0,4210.32258065,0,4207.41935484,0,4192.90322581,0,4198.38709677,0,4136.77419355,0,4204.51612903,0,4168.70967742,0,4169.03225806,0,4193.5483871,0,4202.25806452,0,4133.22580645,0,0,0,?
2018-01-30 09:50:08.735000,4242.25806452,0,4141.29032258,0,4163.5483871,0,4227.09677419,0,4210.0,0,4194.51612903,0,4231.93548387,0,4142.90322581,0,4199.03225806,0,4194.19354839,0,4197.74193548,0,4204.19354839,0,4239.67741935,0,4195.16129032,0,0,0,?
2018-01-30 09:50:08.743000,4268.38709677,0,4138.70967742,0,4134.83870968,0,4167.74193548,0,4199.67741935,0,4177.09677419,0,4207.41935484,0,4139.35483871,0,4171.29032258,0,4166.4516129,0,4188.06451613,0,4220.64516129,0,4206.12903226,0,4172.58064516,0,0,0,?
2018-01-30 09:50:08.748000,4224.19354839,0,4151.93548387,0,4200.64516129,0,4227.41935484,0,4192.58064516,0,4204.19354839,0,4230.96774194,0,4160.0,0,4252.25806452,0,4196.4516129,0,4248.70967742,0,4233.22580645,0,4249.67741935,0,4211.61290323,0,0,0,?
2018-01-30 09:50:08.759000,4233.5483871,0,4175.16129032,0,4211.29032258,0,4242.90322581,0,4176.4516129,0,4200.32258065,0,4207.09677419,0,4161.61290323,0,4199.35483871,0,4203.87096774,0,4236.77419355,0,4220.32258065,0,4259.03225806,0,4209.35483871,0,0,0,?
2018-01-30 09:50:08.772000,4220.96774194,0,4167.41935484,0,4179.35483871,0,4243.22580645,0,4171.93548387,0,4187.74193548,0,4214.19354839,0,4167.74193548,0,4209.35483871,0,4194.19354839,0,4197.41935484,0,4210.96774194,0,4215.16129032,0,4150.64516129,0,0,0,?
2018-01-30 09:50:08.776000,4233.5483871,0,4160.0,0,4150.32258065,0,4228.06451613,0,4168.70967742,0,4187.09677419,0,4218.70967742,0,4175.16129032,0,4213.5483871,0,4190.0,0,4220.32258065,0,4201.93548387,0,4227.41935484,0,4210.64516129,0,0,0,?
2018-01-30 09:50:08.781000,4228.70967742,0,4155.16129032,0,4155.48387097,0,4165.48387097,0,4171.93548387,0,4191.61290323,0,4199.03225806,0,4110.96774194,0,4147.09677419,0,4204.83870968,0,4170.32258065,0,4199.67741935,0,4202.58064516,0,4163.5483871,0,0,0,?
2018-01-30 09:50:08.793000,4194.19354839,0,4145.80645161,0,4235.16129032,0,4250.64516129,0,4197.41935484,0,4166.4516129,0,4232.25806452,0,4161.61290323,0,4213.87096774,0,4193.5483871,0,4221.29032258,0,4210.32258065,0,4232.58064516,0,4186.12903226,0,0,0,?
2018-01-30 09:50:08.797000,4242.25806452,0,4148.38709677,0,4132.58064516,0,4169.35483871,0,4182.58064516,0,4182.58064516,0,4161.93548387,0,4126.12903226,0,4155.16129032,0,4205.80645161,0,4158.06451613,0,4217.41935484,0,4212.90322581,0,4170.0,0,0,0,?
2018-01-30 09:50:08.805000,4204.19354839,0,4141.93548387,0,4126.12903226,0,4170.0,0,4196.12903226,0,4170.32258065,0,4191.29032258,0,4099.67741935,0,4162.90322581,0,4177.74193548,0,4160.0,0,4191.61290323,0,4228.06451613,0,4172.25806452,0,0,0,?
2018-01-30 09:50:08.812000,4201.93548387,0,4156.12903226,0,4182.90322581,0,4224.51612903,0,4180.96774194,0,4192.90322581,0,4214.51612903,0,4130.32258065,0,4230.64516129,0,4192.90322581,0,4227.41935484,0,4194.19354839,0,4229.35483871,0,4180.0,0,0,0,?
2018-01-30 09:50:08.823000,4255.16129032,0,4152.90322581,0,4166.77419355,0,4163.5483871,0,4190.0,0,4176.12903226,0,4189.35483871,0,4103.87096774,0,4152.58064516,0,4206.77419355,0,4170.0,0,4193.22580645,0,4196.77419355,0,4164.51612903,0,0,0,?
2018-01-30 09:50:08.827000,4232.25806452,0,4125.48387097,0,4169.03225806,0,4197.41935484,0,4199.35483871,0,4177.09677419,0,4180.64516129,0,4152.58064516,0,4163.87096774,0,4203.87096774,0,4185.16129032,0,4214.83870968,0,4208.38709677,0,4169.35483871,0,0,0,?
2018-01-30 09:50:08.838000,4237.74193548,0,4140.32258065,0,4144.51612903,0,4210.0,0,4199.35483871,0,4181.29032258,0,4170.32258065,0,4130.32258065,0,4179.35483871,0,4173.5483871,0,4189.03225806,0,4220.96774194,0,4232.58064516,0,4171.61290323,0,0,0,?
2018-01-30 09:50:08.842000,4206.4516129,0,4142.58064516,0,4161.93548387,0,4211.29032258,0,4181.29032258,0,4192.58064516,0,4182.25806452,0,4146.77419355,0,4165.16129032,0,4210.0,0,4202.58064516,0,4228.70967742,0,4219.35483871,0,4170.32258065,0,0,0,?
2018-01-30 09:50:08.854000,4180.96774194,0,4127.09677419,0,4200.64516129,0,4239.03225806,0,4180.0,0,4185.48387097,0,4208.06451613,0,4133.87096774,0,4219.03225806,0,4210.32258065,0,4180.64516129,0,4195.80645161,0,4241.29032258,0,4190.0,0,0,0,?
2018-01-30 09:50:08.859000,4242.58064516,0,4136.77419355,0,4154.51612903,0,4180.0,0,4200.96774194,0,4179.67741935,0,4196.4516129,0,4115.48387097,0,4132.90322581,0,4190.64516129,0,4172.58064516,0,4197.09677419,0,4205.48387097,0,4150.96774194,0,0,0,?
2018-01-30 09:50:08.871000,4167.74193548,0,4166.77419355,0,4270.32258065,0,4306.77419355,0,4232.58064516,0,4191.61290323,0,4240.0,0,4177.74193548,0,4249.35483871,0,4217.09677419,0,4276.4516129,0,4242.90322581,0,4253.22580645,0,4193.5483871,0,0,0,?
2018-01-30 09:50:08.875000,4210.96774194,0,4146.77419355,0,4255.16129032,0,4258.06451613,0,4236.77419355,0,4191.61290323,0,4234.51612903,0,4177.09677419,0,4287.09677419,0,4240.32258065,0,4288.38709677,0,4258.38709677,0,4231.29032258,0,4211.29032258,0,0,0,?
2018-01-30 09:50:08.889000,4242.25806452,0,4136.77419355,0,4241.93548387,0,4251.29032258,0,4206.4516129,0,4164.51612903,0,4222.58064516,0,4164.51612903,0,4252.58064516,0,4189.35483871,0,4230.64516129,0,4200.96774194,0,4234.19354839,0,4166.77419355,0,0,0,?
2018-01-30 09:50:08.891000,4219.03225806,0,4135.16129032,0,4196.4516129,0,4274.51612903,0,4208.70967742,0,4172.90322581,0,4237.09677419,0,4179.67741935,0,4281.93548387,0,4204.19354839,0,4227.74193548,0,4233.5483871,0,4267.41935484,0,4230.0,0,0,0,?
2018-01-30 09:50:08.902000,4236.77419355,0,4149.03225806,0,4193.22580645,0,4203.5483871,0,4176.77419355,0,4196.12903226,0,4218.70967742,0,4143.5483871,0,4202.58064516,0,4170.96774194,0,4199.35483871,0,4194.51612903,0,4241.61290323,0,4172.58064516,0,0,0,?
2018-01-30 09:50:08.906000,4178.06451613,0,4158.06451613,0,4232.90322581,0,4287.09677419,0,4205.16129032,0,4161.29032258,0,4208.38709677,0,4189.03225806,0,4274.51612903,0,4203.87096774,0,4228.38709677,0,4231.29032258,0,4250.32258065,0,4218.38709677,0,0,0,?
2018-01-30 09:50:08.916000,4226.4516129,0,4187.41935484,0,4242.90322581,0,4265.80645161,0,4214.19354839,0,4190.32258065,0,4205.48387097,0,4202.58064516,0,4265.48387097,0,4228.38709677,0,4253.5483871,0,4241.29032258,0,4272.25806452,0,4222.58064516,0,0,0,?
2018-01-30 09:50:08.922000,4207.09677419,0,4182.58064516,0,4232.58064516,0,4276.12903226,0,4228.06451613,0,4189.67741935,0,4210.0,0,4204.19354839,0,4236.12903226,0,4194.19354839,0,4266.4516129,0,4227.09677419,0,4243.87096774,0,4234.51612903,0,0,0,?
2018-01-30 09:50:08.936000,4164.19354839,0,4165.80645161,0,4291.93548387,0,4330.64516129,0,4236.12903226,0,4187.41935484,0,4236.12903226,0,4210.32258065,0,4299.35483871,0,4233.87096774,0,4301.93548387,0,4234.51612903,0,4234.83870968,0,4255.48387097,0,0,0,?
2018-01-30 09:50:08.937000,4204.83870968,0,4156.4516129,0,4214.51612903,0,4270.96774194,0,4198.38709677,0,4171.61290323,0,4222.58064516,0,4162.25806452,0,4199.35483871,0,4201.61290323,0,4200.0,0,4220.64516129,0,4244.83870968,0,4231.61290323,0,0,0,?
2018-01-30 09:50:08.950000,4178.38709677,0,4142.58064516,0,4228.38709677,0,4289.35483871,0,4239.35483871,0,4190.96774194,0,4209.03225806,0,4191.61290323,0,4273.87096774,0,4192.58064516,0,4265.80645161,0,4222.90322581,0,4238.70967742,0,4225.48387097,0,0,0,?
2018-01-30 09:50:08.953000,4227.09677419,0,4152.58064516,0,4270.64516129,0,4267.74193548,0,4222.58064516,0,4191.29032258,0,4237.74193548,0,4182.90322581,0,4269.03225806,0,4195.48387097,0,4231.93548387,0,4230.32258065,0,4272.90322581,0,4239.03225806,0,0,0,?
2018-01-30 09:50:08.967000,4241.93548387,0,4138.70967742,0,4194.19354839,0,4266.12903226,0,4189.35483871,0,4169.67741935,0,4228.38709677,0,4177.41935484,0,4203.87096774,0,4196.4516129,0,4206.4516129,0,4233.87096774,0,4214.83870968,0,4197.41935484,0,0,0,?
2018-01-30 09:50:08.969000,4210.64516129,0,4139.03225806,0,4238.06451613,0,4311.93548387,0,4212.25806452,0,4173.22580645,0,4232.58064516,0,4207.41935484,0,4241.93548387,0,4177.41935484,0,4235.16129032,0,4223.22580645,0,4238.38709677,0,4206.4516129,0,0,0,?
2018-01-30 09:50:08.985000,4262.25806452,0,4173.22580645,0,4217.74193548,0,4260.96774194,0,4203.5483871,0,4179.67741935,0,4211.61290323,0,4202.90322581,0,4239.67741935,0,4190.32258065,0,4208.06451613,0,4205.80645161,0,4258.06451613,0,4200.64516129,0,0,0,?
2018-01-30 09:50:08.986000,4208.06451613,0,4189.03225806,0,4243.22580645,0,4303.22580645,0,4200.0,0,4220.96774194,0,4239.03225806,0,4241.61290323,0,4299.03225806,0,4211.61290323,0,4277.74193548,0,4247.09677419,0,4273.5483871,0,4210.0,0,0,0,?
2018-01-30 09:50:08.996000,4254.51612903,0,4164.83870968,0,4272.90322581,0,4371.93548387,0,4199.03225806,0,4219.35483871,0,4246.77419355,0,4199.03225806,0,4313.87096774,0,4217.74193548,0,4299.03225806,0,4275.16129032,0,4237.41935484,0,4234.19354839,0,0,0,?
2018-01-30 09:50:09,4255.16129032,0,4171.93548387,0,4235.16129032,0,4324.83870968,0,4233.22580645,0,4189.67741935,0,4233.5483871,0,4176.4516129,0,4260.32258065,0,4192.58064516,0,4258.70967742,0,4243.22580645,0,4250.0,0,4234.19354839,0,0,0,?
2018-01-30 09:50:09.011000,4229.67741935,0,4207.74193548,0,4285.16129032,0,4324.19354839,0,4213.5483871,0,4216.4516129,0,4247.74193548,0,4203.22580645,0,4332.90322581,0,4238.06451613,0,4295.16129032,0,4237.09677419,0,4232.90322581,0,4269.03225806,0,0,0,?
2018-01-30 09:50:09.016000,4273.5483871,0,4166.4516129,0,4230.0,0,4303.22580645,0,4240.64516129,0,4208.70967742,0,4235.80645161,0,4178.38709677,0,4242.25806452,0,4216.4516129,0,4233.87096774,0,4243.22580645,0,4267.09677419,0,4196.12903226,0,0,0,?
2018-01-30 09:50:09.027000,4223.22580645,0,4175.80645161,0,4246.77419355,0,4328.38709677,0,4211.93548387,0,4204.19354839,0,4228.70967742,0,4211.29032258,0,4317.41935484,0,4210.0,0,4258.06451613,0,4247.74193548,0,4261.93548387,0,4212.90322581,0,0,0,?
2018-01-30 09:50:09.033000,4233.22580645,0,4180.32258065,0,4279.03225806,0,4357.74193548,0,4208.38709677,0,4216.12903226,0,4253.5483871,0,4242.25806452,0,4327.09677419,0,4220.32258065,0,4269.67741935,0,4269.03225806,0,4245.16129032,0,4241.29032258,0,0,0,?
2018-01-30 09:50:09.044000,4241.61290323,0,4168.70967742,0,4260.32258065,0,4239.35483871,0,4231.61290323,0,4203.22580645,0,4214.51612903,0,4210.0,0,4250.96774194,0,4165.16129032,0,4228.70967742,0,4215.48387097,0,4253.87096774,0,4215.48387097,0,0,0,?
2018-01-30 09:50:09.048000,4236.4516129,0,4168.06451613,0,4240.64516129,0,4301.93548387,0,4241.61290323,0,4190.96774194,0,4252.90322581,0,4210.32258065,0,4303.22580645,0,4198.70967742,0,4235.48387097,0,4244.83870968,0,4271.61290323,0,4241.93548387,0,0,0,?
2018-01-30 09:50:09.059000,4252.25806452,0,4180.96774194,0,4205.80645161,0,4282.90322581,0,4196.77419355,0,4164.51612903,0,4231.61290323,0,4168.38709677,0,4271.29032258,0,4186.12903226,0,4212.25806452,0,4198.38709677,0,4252.58064516,0,4235.16129032,0,0,0,?
2018-01-30 09:50:09.067000,4210.96774194,0,4170.96774194,0,4233.87096774,0,4258.70967742,0,4231.29032258,0,4192.58064516,0,4209.03225806,0,4203.5483871,0,4250.32258065,0,4206.77419355,0,4239.03225806,0,4198.06451613,0,4240.64516129,0,4234.19354839,0,0,0,?
2018-01-30 09:50:09.075000,4196.77419355,0,4189.35483871,0,4301.93548387,0,4336.12903226,0,4224.19354839,0,4220.0,0,4274.19354839,0,4242.25806452,0,4305.80645161,0,4195.48387097,0,4308.06451613,0,4245.48387097,0,4231.61290323,0,4264.83870968,0,0,0,?
2018-01-30 09:50:09.079000,4236.77419355,0,4191.29032258,0,4249.67741935,0,4280.32258065,0,4202.90322581,0,4197.74193548,0,4213.5483871,0,4209.67741935,0,4236.12903226,0,4185.16129032,0,4249.67741935,0,4220.32258065,0,4248.06451613,0,4201.61290323,0,0,0,?
2018-01-30 09:50:09.090000,4187.09677419,0,4163.87096774,0,4279.03225806,0,4322.90322581,0,4201.61290323,0,4209.03225806,0,4269.67741935,0,4203.5483871,0,4284.51612903,0,4218.06451613,0,4258.38709677,0,4234.51612903,0,4230.64516129,0,4182.90322581,0,0,0,?
2018-01-30 09:50:09.096000,4210.32258065,0,4169.35483871,0,4218.38709677,0,4259.35483871,0,4209.03225806,0,4193.87096774,0,4205.80645161,0,4203.87096774,0,4272.90322581,0,4201.61290323,0,4234.19354839,0,4249.67741935,0,4229.35483871,0,4201.29032258,0,0,0,?
2018-01-30 09:50:09.107000,4202.25806452,0,4166.77419355,0,4206.12903226,0,4233.22580645,0,4219.67741935,0,4181.29032258,0,4198.70967742,0,4210.32258065,0,4237.09677419,0,4163.5483871,0,4261.61290323,0,4203.87096774,0,4243.5483871,0,4205.48387097,0,0,0,?
2018-01-30 09:50:09.110000,4206.4516129,0,4208.70967742,0,4219.67741935,0,4305.48387097,0,4225.48387097,0,4185.16129032,0,4250.0,0,4198.38709677,0,4306.12903226,0,4190.64516129,0,4230.32258065,0,4226.12903226,0,4270.0,0,4187.41935484,0,0,0,?
2018-01-30 09:50:09.121000,4209.67741935,0,4188.06451613,0,4165.16129032,0,4210.64516129,0,4177.41935484,0,4208.38709677,0,4184.51612903,0,4176.4516129,0,4208.38709677,0,4161.93548387,0,4163.87096774,0,4222.58064516,0,4215.16129032,0,4110.32258065,0,0,0,?
2018-01-30 09:50:09.126000,4178.06451613,0,4161.93548387,0,4160.0,0,4224.83870968,0,4176.77419355,0,4195.80645161,0,4194.19354839,0,4146.12903226,0,4209.35483871,0,4162.58064516,0,4180.0,0,4238.70967742,0,4210.32258065,0,4092.25806452,0,0,0,?
2018-01-30 09:50:09.138000,4207.41935484,0,4170.32258065,0,4166.77419355,0,4204.19354839,0,4192.58064516,0,4171.61290323,0,4208.38709677,0,4145.48387097,0,4171.61290323,0,4193.22580645,0,4168.70967742,0,4209.67741935,0,4213.87096774,0,4095.80645161,0,0,0,?
2018-01-30 09:50:09.143000,4222.90322581,0,4173.87096774,0,4176.77419355,0,4185.48387097,0,4196.12903226,0,4175.80645161,0,4193.87096774,0,4134.19354839,0,4158.06451613,0,4173.5483871,0,4132.90322581,0,4200.0,0,4233.22580645,0,4049.67741935,0,0,0,?
2018-01-30 09:50:09.153000,4204.51612903,0,4171.29032258,0,4173.87096774,0,4229.03225806,0,4200.64516129,0,4189.67741935,0,4187.09677419,0,4167.09677419,0,4186.4516129,0,4191.93548387,0,4197.09677419,0,4226.4516129,0,4212.58064516,0,4070.96774194,0,0,0,?
2018-01-30 09:50:09.160000,4203.5483871,0,4168.70967742,0,4103.5483871,0,4124.83870968,0,4162.58064516,0,4155.80645161,0,4165.16129032,0,4108.06451613,0,4105.80645161,0,4137.41935484,0,4095.16129032,0,4200.96774194,0,4232.90322581,0,4049.35483871,0,0,0,?
2018-01-30 09:50:09.168000,4174.51612903,0,4168.06451613,0,4149.67741935,0,4179.67741935,0,4186.12903226,0,4157.74193548,0,4171.29032258,0,4128.06451613,0,4160.96774194,0,4165.80645161,0,4107.09677419,0,4186.4516129,0,4239.03225806,0,4065.48387097,0,0,0,?
2018-01-30 09:50:09.173000,4241.29032258,0,4179.67741935,0,4127.09677419,0,4156.77419355,0,4156.4516129,0,4149.67741935,0,4159.67741935,0,4131.93548387,0,4128.06451613,0,4180.0,0,4097.74193548,0,4184.19354839,0,4240.96774194,0,4045.48387097,0,0,0,?
2018-01-30 09:50:09.184000,4189.35483871,0,4175.80645161,0,4093.5483871,0,4138.06451613,0,4144.19354839,0,4139.35483871,0,4152.58064516,0,4084.19354839,0,4087.74193548,0,4143.87096774,0,4097.09677419,0,4197.41935484,0,4203.87096774,0,4044.19354839,0,0,0,?
2018-01-30 09:50:09.189000,4194.19354839,0,4200.32258065,0,4173.5483871,0,4162.90322581,0,4186.12903226,0,4172.90322581,0,4199.35483871,0,4146.4516129,0,4145.48387097,0,4179.35483871,0,4141.29032258,0,4201.93548387,0,4206.12903226,0,4056.4516129,0,0,0,?
2018-01-30 09:50:09.200000,4221.61290323,0,4180.64516129,0,4173.22580645,0,4161.29032258,0,4199.67741935,0,4190.0,0,4176.4516129,0,4117.41935484,0,4154.51612903,0,4172.25806452,0,4141.61290323,0,4196.12903226,0,4209.03225806,0,4106.4516129,0,0,0,?
2018-01-30 09:50:09.205000,4201.61290323,0,4170.96774194,0,4166.4516129,0,4233.87096774,0,4187.09677419,0,4197.09677419,0,4183.5483871,0,4143.87096774,0,4201.29032258,0,4202.58064516,0,4193.22580645,0,4237.09677419,0,4225.16129032,0,4136.4516129,0,0,0,?
2018-01-30 09:50:09.216000,4197.09677419,0,4164.51612903,0,4181.29032258,0,4236.12903226,0,4203.87096774,0,4174.19354839,0,4164.51612903,0,4173.5483871,0,4166.4516129,0,4166.4516129,0,4164.19354839,0,4225.16129032,0,4231.93548387,0,4120.64516129,0,0,0,?
2018-01-30 09:50:09.221000,4180.96774194,0,4209.35483871,0,4175.48387097,0,4181.61290323,0,4197.74193548,0,4182.25806452,0,4190.0,0,4117.74193548,0,4150.64516129,0,4190.0,0,4139.67741935,0,4199.35483871,0,4236.77419355,0,4099.35483871,0,0,0,?
2018-01-30 09:50:09.233000,4195.16129032,0,4162.58064516,0,4218.70967742,0,4266.12903226,0,4187.09677419,0,4167.74193548,0,4232.58064516,0,4162.25806452,0,4216.77419355,0,4170.32258065,0,4182.25806452,0,4211.93548387,0,4228.06451613,0,4108.06451613,0,0,0,?
2018-01-30 09:50:09.237000,4211.93548387,0,4178.06451613,0,4134.19354839,0,4238.06451613,0,4165.80645161,0,4197.09677419,0,4190.32258065,0,4130.64516129,0,4165.48387097,0,4190.32258065,0,4163.87096774,0,4213.22580645,0,4218.38709677,0,4133.87096774,0,0,0,?
2018-01-30 09:50:09.248000,4203.87096774,0,4191.61290323,0,4192.90322581,0,4229.67741935,0,4198.06451613,0,4162.58064516,0,4199.67741935,0,4200.96774194,0,4238.38709677,0,4206.4516129,0,4184.51612903,0,4221.29032258,0,4217.74193548,0,4110.32258065,0,0,0,?
2018-01-30 09:50:09.253000,4220.96774194,0,4215.80645161,0,4201.61290323,0,4227.74193548,0,4190.0,0,4174.51612903,0,4198.06451613,0,4195.80645161,0,4225.80645161,0,4181.29032258,0,4194.19354839,0,4197.41935484,0,4241.29032258,0,4152.25806452,0,0,0,?
2018-01-30 09:50:09.263000,4207.74193548,0,4208.06451613,0,4169.03225806,0,4237.41935484,0,4163.5483871,0,4200.96774194,0,4182.90322581,0,4169.35483871,0,4171.93548387,0,4193.22580645,0,4190.96774194,0,4224.51612903,0,4215.48387097,0,4131.29032258,0,0,0,?
2018-01-30 09:50:09.269000,4198.70967742,0,4205.80645161,0,4228.38709677,0,4259.67741935,0,4188.06451613,0,4166.4516129,0,4197.09677419,0,4179.35483871,0,4215.80645161,0,4168.70967742,0,4236.12903226,0,4211.29032258,0,4253.22580645,0,4120.0,0,0,0,?
2018-01-30 09:50:09.281000,4230.0,0,4231.93548387,0,4203.87096774,0,4220.64516129,0,4174.19354839,0,4166.4516129,0,4186.77419355,0,4176.12903226,0,4194.51612903,0,4206.4516129,0,4197.09677419,0,4226.77419355,0,4229.03225806,0,4120.32258065,0,0,0,?
2018-01-30 09:50:09.285000,4203.5483871,0,4199.67741935,0,4240.64516129,0,4232.90322581,0,4202.25806452,0,4167.41935484,0,4223.87096774,0,4189.35483871,0,4218.06451613,0,4210.64516129,0,4196.77419355,0,4200.64516129,0,4219.67741935,0,4111.61290323,0,0,0,?
2018-01-30 09:50:09.302000,4188.70967742,0,4216.77419355,0,4222.25806452,0,4298.06451613,0,4201.61290323,0,4174.83870968,0,4206.77419355,0,4205.48387097,0,4230.0,0,4185.16129032,0,4195.16129032,0,4213.22580645,0,4254.51612903,0,4130.64516129,0,0,0,?
2018-01-30 09:50:09.304000,4196.12903226,0,4243.22580645,0,4205.48387097,0,4257.41935484,0,4195.16129032,0,4181.93548387,0,4211.93548387,0,4148.06451613,0,4177.09677419,0,4208.38709677,0,4183.87096774,0,4230.64516129,0,4228.06451613,0,4120.64516129,0,0,0,?
2018-01-30 09:50:09.311000,4194.51612903,0,4228.70967742,0,4266.77419355,0,4299.67741935,0,4228.06451613,0,4196.4516129,0,4213.22580645,0,4192.58064516,0,4254.19354839,0,4188.70967742,0,4207.09677419,0,4232.58064516,0,4264.83870968,0,4148.06451613,0,0,0,?
2018-01-30 09:50:09.316000,4241.93548387,0,4197.09677419,0,4215.16129032,0,4269.35483871,0,4203.87096774,0,4176.12903226,0,4199.67741935,0,4174.19354839,0,4199.67741935,0,4178.38709677,0,4170.64516129,0,4233.5483871,0,4247.09677419,0,4161.61290323,0,0,0,?
2018-01-30 09:50:09.326000,4161.61290323,0,4229.03225806,0,4241.93548387,0,4300.32258065,0,4235.48387097,0,4195.16129032,0,4228.06451613,0,4170.96774194,0,4273.5483871,0,4181.61290323,0,4220.64516129,0,4202.58064516,0,4239.67741935,0,4170.64516129,0,0,0,?
2018-01-30 09:50:09.332000,4186.4516129,0,4223.5483871,0,4242.58064516,0,4330.0,0,4240.0,0,4214.51612903,0,4231.29032258,0,4204.51612903,0,4268.70967742,0,4196.12903226,0,4225.80645161,0,4238.06451613,0,4229.67741935,0,4185.48387097,0,0,0,?
2018-01-30 09:50:09.340000,4215.48387097,0,4234.19354839,0,4236.77419355,0,4247.74193548,0,4210.0,0,4197.09677419,0,4235.48387097,0,4168.38709677,0,4187.74193548,0,4205.48387097,0,4203.5483871,0,4226.12903226,0,4241.61290323,0,4147.74193548,0,0,0,?
2018-01-30 09:50:09.347000,4195.80645161,0,4194.19354839,0,4277.74193548,0,4304.51612903,0,4229.67741935,0,4207.41935484,0,4257.41935484,0,4219.03225806,0,4275.16129032,0,4200.32258065,0,4255.48387097,0,4230.32258065,0,4229.67741935,0,4152.58064516,0,0,0,?
2018-01-30 09:50:09.358000,4236.12903226,0,4194.83870968,0,4224.19354839,0,4303.22580645,0,4201.61290323,0,4192.90322581,0,4217.74193548,0,4173.5483871,0,4256.4516129,0,4189.67741935,0,4217.41935484,0,4215.80645161,0,4275.16129032,0,4174.51612903,0,0,0,?
2018-01-30 09:50:09.362000,4171.61290323,0,4218.70967742,0,4195.80645161,0,4303.5483871,0,4230.96774194,0,4204.83870968,0,4233.87096774,0,4199.35483871,0,4260.0,0,4174.19354839,0,4197.74193548,0,4214.51612903,0,4246.77419355,0,4170.96774194,0,0,0,?
2018-01-30 09:50:09.374000,4195.16129032,0,4227.09677419,0,4261.29032258,0,4342.58064516,0,4195.16129032,0,4219.67741935,0,4226.12903226,0,4197.74193548,0,4259.67741935,0,4214.51612903,0,4275.16129032,0,4253.5483871,0,4234.19354839,0,4192.58064516,0,0,0,?
2018-01-30 09:50:09.378000,4204.51612903,0,4194.19354839,0,4219.35483871,0,4274.51612903,0,4218.70967742,0,4196.4516129,0,4195.80645161,0,4202.58064516,0,4223.22580645,0,4180.0,0,4233.22580645,0,4207.09677419,0,4256.12903226,0,4172.25806452,0,0,0,?
2018-01-30 09:50:09.389000,4167.74193548,0,4240.64516129,0,4292.90322581,0,4331.93548387,0,4196.77419355,0,4211.29032258,0,4270.32258065,0,4223.87096774,0,4275.80645161,0,4197.41935484,0,4250.96774194,0,4247.09677419,0,4235.48387097,0,4190.32258065,0,0,0,?
2018-01-30 09:50:09.394000,4237.09677419,0,4212.25806452,0,4251.93548387,0,4323.22580645,0,4228.38709677,0,4214.19354839,0,4260.0,0,4192.58064516,0,4281.29032258,0,4195.80645161,0,4267.09677419,0,4237.09677419,0,4245.80645161,0,4185.16129032,0,0,0,?
2018-01-30 09:50:09.405000,4212.25806452,0,4240.32258065,0,4264.83870968,0,4307.74193548,0,4198.70967742,0,4220.32258065,0,4261.29032258,0,4198.38709677,0,4227.09677419,0,4179.67741935,0,4250.0,0,4220.0,0,4265.48387097,0,4157.41935484,0,0,0,?
2018-01-30 09:50:09.410000,4218.38709677,0,4250.0,0,4263.5483871,0,4347.74193548,0,4217.09677419,0,4215.80645161,0,4237.74193548,0,4197.09677419,0,4264.19354839,0,4201.93548387,0,4275.48387097,0,4234.19354839,0,4239.03225806,0,4169.35483871,0,0,0,?
2018-01-30 09:50:09.422000,4209.35483871,0,4239.35483871,0,4239.67741935,0,4261.29032258,0,4237.74193548,0,4196.12903226,0,4213.87096774,0,4209.03225806,0,4256.12903226,0,4162.90322581,0,4236.77419355,0,4238.06451613,0,4266.4516129,0,4137.41935484,0,0,0,?
2018-01-30 09:50:09.427000,4177.74193548,0,4235.16129032,0,4266.12903226,0,4295.80645161,0,4204.83870968,0,4226.77419355,0,4231.29032258,0,4226.12903226,0,4282.25806452,0,4181.29032258,0,4257.41935484,0,4234.83870968,0,4232.25806452,0,4177.09677419,0,0,0,?
2018-01-30 09:50:09.436000,4242.58064516,0,4240.64516129,0,4265.48387097,0,4285.16129032,0,4227.09677419,0,4216.4516129,0,4237.09677419,0,4187.74193548,0,4215.16129032,0,4182.90322581,0,4205.48387097,0,4219.35483871,0,4227.41935484,0,4185.16129032,0,0,0,?
2018-01-30 09:50:09.442000,4213.87096774,0,4221.93548387,0,4237.74193548,0,4300.96774194,0,4238.06451613,0,4207.41935484,0,4218.38709677,0,4168.70967742,0,4208.38709677,0,4164.83870968,0,4214.19354839,0,4199.03225806,0,4250.64516129,0,4160.64516129,0,0,0,?
2018-01-30 09:50:09.453000,4208.70967742,0,4215.48387097,0,4239.35483871,0,4312.90322581,0,4201.93548387,0,4236.12903226,0,4241.61290323,0,4235.16129032,0,4271.29032258,0,4187.41935484,0,4269.35483871,0,4224.83870968,0,4237.41935484,0,4197.41935484,0,0,0,?
2018-01-30 09:50:09.457000,4206.12903226,0,4212.90322581,0,4195.80645161,0,4254.51612903,0,4207.09677419,0,4205.48387097,0,4219.03225806,0,4191.61290323,0,4220.96774194,0,4198.38709677,0,4146.77419355,0,4216.4516129,0,4252.58064516,0,4129.03225806,0,0,0,?
2018-01-30 09:50:09.469000,4167.09677419,0,4201.61290323,0,4272.90322581,0,4282.25806452,0,4239.03225806,0,4191.29032258,0,4259.67741935,0,4194.19354839,0,4216.12903226,0,4171.93548387,0,4221.93548387,0,4211.61290323,0,4261.93548387,0,4138.06451613,0,0,0,?
2018-01-30 09:50:09.474000,4235.80645161,0,4210.96774194,0,4256.4516129,0,4300.32258065,0,4236.77419355,0,4201.93548387,0,4220.0,0,4185.16129032,0,4215.16129032,0,4176.4516129,0,4200.0,0,4210.32258065,0,4266.12903226,0,4179.35483871,0,0,0,?
2018-01-30 09:50:09.485000,4216.77419355,0,4205.80645161,0,4213.22580645,0,4238.38709677,0,4224.83870968,0,4206.77419355,0,4222.90322581,0,4210.32258065,0,4207.41935484,0,4197.41935484,0,4192.58064516,0,4220.96774194,0,4229.35483871,0,4162.58064516,0,0,0,?
2018-01-30 09:50:09.489000,4198.38709677,0,4207.09677419,0,4248.38709677,0,4310.64516129,0,4233.5483871,0,4200.0,0,4227.41935484,0,4198.06451613,0,4262.90322581,0,4181.93548387,0,4250.64516129,0,4200.64516129,0,4275.16129032,0,4181.29032258,0,0,0,?
2018-01-30 09:50:09.501000,4217.74193548,0,4222.58064516,0,4216.77419355,0,4266.4516129,0,4211.29032258,0,4180.64516129,0,4215.16129032,0,4165.80645161,0,4172.25806452,0,4201.93548387,0,4176.4516129,0,4208.38709677,0,4250.0,0,4148.70967742,0,0,0,?
2018-01-30 09:50:09.504000,4183.22580645,0,4219.03225806,0,4255.80645161,0,4303.22580645,0,4194.51612903,0,4207.74193548,0,4225.48387097,0,4212.25806452,0,4254.83870968,0,4165.80645161,0,4214.51612903,0,4197.41935484,0,4248.70967742,0,4195.80645161,0,0,0,?
2018-01-30 09:50:09.516000,4243.22580645,0,4225.80645161,0,4233.22580645,0,4278.06451613,0,4229.03225806,0,4205.80645161,0,4218.38709677,0,4207.09677419,0,4273.87096774,0,4182.25806452,0,4217.09677419,0,4197.41935484,0,4271.29032258,0,4186.4516129,0,0,0,?
2018-01-30 09:50:09.520000,4223.5483871,0,4231.29032258,0,4222.90322581,0,4252.90322581,0,4221.61290323,0,4189.03225806,0,4194.51612903,0,4201.29032258,0,4202.58064516,0,4210.96774194,0,4188.38709677,0,4215.80645161,0,4246.12903226,0,4145.48387097,0,0,0,?
2018-01-30 09:50:09.531000,4180.96774194,0,4237.09677419,0,4300.64516129,0,4307.41935484,0,4197.09677419,0,4199.67741935,0,4273.22580645,0,4219.67741935,0,4243.22580645,0,4187.74193548,0,4248.06451613,0,4218.38709677,0,4233.5483871,0,4184.51612903,0,0,0,?
2018-01-30 09:50:09.537000,4206.77419355,0,4234.83870968,0,4218.70967742,0,4258.06451613,0,4222.90322581,0,4193.22580645,0,4207.41935484,0,4202.25806452,0,4235.16129032,0,4206.77419355,0,4210.32258065,0,4229.35483871,0,4262.90322581,0,4177.74193548,0,0,0,?
2018-01-30 09:50:09.545000,4172.25806452,0,4208.70967742,0,4273.87096774,0,4283.87096774,0,4196.4516129,0,4221.29032258,0,4245.80645161,0,4218.06451613,0,4259.67741935,0,4171.29032258,0,4216.77419355,0,4199.67741935,0,4257.74193548,0,4167.41935484,0,0,0,?
2018-01-30 09:50:09.555000,4216.4516129,0,4212.58064516,0,4271.61290323,0,4262.58064516,0,4223.87096774,0,4211.61290323,0,4214.51612903,0,4189.67741935,0,4238.70967742,0,4185.16129032,0,4194.51612903,0,4199.03225806,0,4228.38709677,0,4184.83870968,0,0,0,?
2018-01-30 09:50:09.563000,4215.48387097,0,4219.67741935,0,4236.12903226,0,4226.12903226,0,4206.4516129,0,4175.16129032,0,4189.35483871,0,4136.4516129,0,4216.12903226,0,4188.70967742,0,4196.4516129,0,4196.4516129,0,4244.19354839,0,4158.06451613,0,0,0,?
2018-01-30 09:50:09.568000,4175.48387097,0,4222.25806452,0,4232.58064516,0,4297.74193548,0,4203.22580645,0,4200.0,0,4237.09677419,0,4185.16129032,0,4239.35483871,0,4170.0,0,4207.09677419,0,4193.87096774,0,4269.35483871,0,4188.38709677,0,0,0,?
2018-01-30 09:50:09.578000,4227.09677419,0,4233.87096774,0,4215.80645161,0,4270.64516129,0,4199.03225806,0,4210.0,0,4200.96774194,0,4204.51612903,0,4168.70967742,0,4161.29032258,0,4162.90322581,0,4212.90322581,0,4248.06451613,0,4166.4516129,0,0,0,?
2018-01-30 09:50:09.584000,4207.74193548,0,4222.90322581,0,4240.0,0,4272.58064516,0,4196.4516129,0,4200.64516129,0,4218.38709677,0,4171.29032258,0,4233.87096774,0,4207.09677419,0,4200.32258065,0,4215.48387097,0,4244.19354839,0,4174.19354839,0,0,0,?
2018-01-30 09:50:09.592000,4233.22580645,0,4216.12903226,0,4269.03225806,0,4278.38709677,0,4197.41935484,0,4175.80645161,0,4207.41935484,0,4201.61290323,0,4261.93548387,0,4211.29032258,0,4201.29032258,0,4219.35483871,0,4274.83870968,0,4192.58064516,0,0,0,?
2018-01-30 09:50:09.602000,4194.51612903,0,4208.70967742,0,4227.41935484,0,4211.93548387,0,4193.5483871,0,4169.35483871,0,4198.70967742,0,4153.87096774,0,4181.61290323,0,4179.03225806,0,4167.09677419,0,4190.64516129,0,4240.0,0,4190.32258065,0,0,0,?
2018-01-30 09:50:09.611000,4187.74193548,0,4211.93548387,0,4291.29032258,0,4334.83870968,0,4205.80645161,0,4200.0,0,4245.48387097,0,4220.32258065,0,4280.96774194,0,4176.77419355,0,4257.41935484,0,4209.35483871,0,4265.80645161,0,4236.4516129,0,0,0,?
2018-01-30 09:50:09.616000,4222.90322581,0,4211.93548387,0,4229.03225806,0,4268.38709677,0,4209.35483871,0,4182.58064516,0,4226.12903226,0,4175.48387097,0,4197.41935484,0,4165.16129032,0,4212.90322581,0,4223.22580645,0,4245.48387097,0,4208.38709677,0,0,0,?
2018-01-30 09:50:09.626000,4200.0,0,4240.32258065,0,4212.90322581,0,4269.67741935,0,4210.64516129,0,4185.48387097,0,4219.03225806,0,4173.87096774,0,4221.93548387,0,4197.74193548,0,4192.58064516,0,4215.16129032,0,4234.19354839,0,4162.25806452,0,0,0,?
2018-01-30 09:50:09.631000,4217.41935484,0,4194.83870968,0,4245.80645161,0,4260.0,0,4231.93548387,0,4192.90322581,0,4195.16129032,0,4184.51612903,0,4254.83870968,0,4161.61290323,0,4235.48387097,0,4230.96774194,0,4266.77419355,0,4211.29032258,0,0,0,?
2018-01-30 09:50:09.641000,4206.12903226,0,4236.77419355,0,4193.22580645,0,4219.67741935,0,4214.51612903,0,4169.03225806,0,4168.38709677,0,4167.41935484,0,4169.67741935,0,4175.80645161,0,4155.80645161,0,4176.4516129,0,4217.41935484,0,4177.09677419,0,0,0,?
2018-01-30 09:50:09.646000,4187.09677419,0,4223.22580645,0,4251.29032258,0,4251.93548387,0,4223.22580645,0,4174.83870968,0,4218.38709677,0,4207.09677419,0,4224.83870968,0,4201.93548387,0,4200.64516129,0,4213.5483871,0,4239.67741935,0,4175.48387097,0,0,0,?
2018-01-30 09:50:09.658000,4193.5483871,0,4230.32258065,0,4232.25806452,0,4221.61290323,0,4189.35483871,0,4164.19354839,0,4179.03225806,0,4135.16129032,0,4145.80645161,0,4180.0,0,4140.96774194,0,4180.96774194,0,4239.67741935,0,4149.35483871,0,0,0,?
2018-01-30 09:50:09.663000,4173.5483871,0,4213.5483871,0,4203.22580645,0,4219.67741935,0,4206.4516129,0,4166.12903226,0,4207.09677419,0,4168.70967742,0,4183.22580645,0,4173.5483871,0,4174.51612903,0,4180.64516129,0,4216.4516129,0,4144.83870968,0,0,0,?
2018-01-30 09:50:09.674000,4201.29032258,0,4210.64516129,0,4273.22580645,0,4265.16129032,0,4203.5483871,0,4211.29032258,0,4211.29032258,0,4187.09677419,0,4214.83870968,0,4162.90322581,0,4202.25806452,0,4206.4516129,0,4239.35483871,0,4183.87096774,0,0,0,?
2018-01-30 09:50:09.679000,4194.51612903,0,4205.16129032,0,4210.96774194,0,4190.64516129,0,4165.48387097,0,4187.09677419,0,4156.12903226,0,4113.87096774,0,4135.48387097,0,4175.48387097,0,4128.38709677,0,4198.70967742,0,4195.48387097,0,4126.12903226,0,0,0,?
2018-01-30 09:50:09.689000,4211.29032258,0,4194.19354839,0,4209.35483871,0,4242.25806452,0,4194.19354839,0,4210.0,0,4196.12903226,0,4147.09677419,0,4167.74193548,0,4192.58064516,0,4173.87096774,0,4188.70967742,0,4211.61290323,0,4144.51612903,0,0,0,?
2018-01-30 09:50:09.694000,4236.12903226,0,4214.51612903,0,4215.80645161,0,4215.80645161,0,4178.70967742,0,4199.35483871,0,4170.64516129,0,4172.25806452,0,4157.41935484,0,4180.64516129,0,4178.38709677,0,4170.64516129,0,4218.38709677,0,4157.74193548,0,0,0,?
2018-01-30 09:50:09.704000,4179.03225806,0,4215.48387097,0,4244.51612903,0,4230.32258065,0,4195.80645161,0,4193.22580645,0,4161.29032258,0,4130.64516129,0,4174.83870968,0,4163.5483871,0,4156.12903226,0,4170.32258065,0,4210.64516129,0,4179.03225806,0,0,0,?
2018-01-30 09:50:09.710000,4174.51612903,0,4209.35483871,0,4233.5483871,0,4224.19354839,0,4197.74193548,0,4203.5483871,0,4193.22580645,0,4176.77419355,0,4183.5483871,0,4189.03225806,0,4200.0,0,4202.58064516,0,4239.03225806,0,4174.51612903,0,0,0,?
2018-01-30 09:50:09.721000,4228.70967742,0,4201.29032258,0,4192.90322581,0,4152.58064516,0,4202.25806452,0,4173.87096774,0,4144.83870968,0,4118.70967742,0,4131.29032258,0,4144.19354839,0,4080.32258065,0,4172.90322581,0,4236.4516129,0,4128.06451613,0,0,0,?
2018-01-30 09:50:09.725000,4203.5483871,0,4181.93548387,0,4192.58064516,0,4162.58064516,0,4210.96774194,0,4170.0,0,4185.48387097,0,4150.0,0,4135.16129032,0,4148.38709677,0,4109.67741935,0,4180.0,0,4243.5483871,0,4123.87096774,0,0,0,?
2018-01-30 09:50:09.736000,4228.06451613,0,4170.96774194,0,4138.06451613,0,4140.0,0,4170.0,0,4149.03225806,0,4130.0,0,4121.93548387,0,4089.67741935,0,4175.48387097,0,4081.29032258,0,4154.19354839,0,4235.16129032,0,4120.32258065,0,0,0,?
2018-01-30 09:50:09.741000,4181.61290323,0,4198.38709677,0,4122.25806452,0,4110.96774194,0,4162.90322581,0,4134.19354839,0,4140.64516129,0,4091.93548387,0,4057.09677419,0,4144.19354839,0,4073.22580645,0,4179.03225806,0,4185.48387097,0,4080.64516129,0,0,0,?
2018-01-30 09:50:09.752000,4163.5483871,0,4201.61290323,0,4150.0,0,4157.41935484,0,4166.12903226,0,4142.25806452,0,4130.96774194,0,4140.0,0,4114.51612903,0,4178.06451613,0,4108.70967742,0,4155.48387097,0,4214.51612903,0,4145.48387097,0,0,0,?
2018-01-30 09:50:09.757000,4225.80645161,0,4209.67741935,0,4131.29032258,0,4104.19354839,0,4178.06451613,0,4176.12903226,0,4112.25806452,0,4090.0,0,4040.0,0,4148.38709677,0,4053.22580645,0,4167.09677419,0,4199.35483871,0,4109.03225806,0,0,0,?
2018-01-30 09:50:09.768000,4187.09677419,0,4193.22580645,0,4159.35483871,0,4132.90322581,0,4168.06451613,0,4141.29032258,0,4137.41935484,0,4119.35483871,0,4076.4516129,0,4157.09677419,0,4099.35483871,0,4167.74193548,0,4212.25806452,0,4100.32258065,0,0,0,?
2018-01-30 09:50:09.772000,4197.74193548,0,4190.32258065,0,4137.41935484,0,4112.58064516,0,4158.70967742,0,4134.51612903,0,4161.29032258,0,4096.4516129,0,4060.32258065,0,4153.22580645,0,4045.16129032,0,4146.77419355,0,4211.61290323,0,4077.74193548,0,0,0,?
2018-01-30 09:50:09.785000,4173.22580645,0,4173.87096774,0,4146.77419355,0,4090.96774194,0,4140.32258065,0,4169.35483871,0,4114.19354839,0,4086.4516129,0,4065.48387097,0,4135.16129032,0,4018.06451613,0,4154.51612903,0,4177.09677419,0,4082.25806452,0,0,0,?
2018-01-30 09:50:09.789000,4193.87096774,0,4164.19354839,0,4148.70967742,0,4098.06451613,0,4145.80645161,0,4130.96774194,0,4178.38709677,0,4103.22580645,0,4067.41935484,0,4173.87096774,0,4091.93548387,0,4149.03225806,0,4206.77419355,0,4099.35483871,0,0,0,?
2018-01-30 09:50:09.804000,4208.38709677,0,4170.32258065,0,4075.48387097,0,4058.38709677,0,4173.87096774,0,4162.90322581,0,4113.22580645,0,4083.5483871,0,4018.38709677,0,4129.03225806,0,4043.87096774,0,4147.74193548,0,4172.90322581,0,4069.03225806,0,0,0,?
2018-01-30 09:50:09.806000,4175.16129032,0,4161.61290323,0,4124.83870968,0,4095.80645161,0,4137.74193548,0,4155.80645161,0,4148.70967742,0,4110.32258065,0,4049.03225806,0,4117.74193548,0,4031.93548387,0,4151.29032258,0,4168.06451613,0,4047.74193548,0,0,0,?
2018-01-30 09:50:09.815000,4176.12903226,0,4159.67741935,0,4073.5483871,0,4042.58064516,0,4146.4516129,0,4138.38709677,0,4096.77419355,0,4058.70967742,0,4016.12903226,0,4122.25806452,0,4022.58064516,0,4134.19354839,0,4169.03225806,0,4029.67741935,0,0,0,?
2018-01-30 09:50:09.820000,4211.29032258,0,4153.5483871,0,4060.32258065,0,4015.80645161,0,4139.03225806,0,4135.48387097,0,4067.74193548,0,4070.64516129,0,4015.48387097,0,4101.29032258,0,3983.87096774,0,4105.80645161,0,4180.64516129,0,4025.16129032,0,0,0,?
2018-01-30 09:50:09.835000,4179.35483871,0,4159.03225806,0,4099.35483871,0,4045.48387097,0,4169.67741935,0,4159.67741935,0,4141.93548387,0,4113.22580645,0,4044.83870968,0,4137.09677419,0,4030.96774194,0,4163.87096774,0,4178.38709677,0,4057.74193548,0,0,0,?
2018-01-30 09:50:09.836000,4200.32258065,0,4166.4516129,0,4057.74193548,0,4036.12903226,0,4136.12903226,0,4145.48387097,0,4110.64516129,0,4032.58064516,0,3995.48387097,0,4105.16129032,0,4013.22580645,0,4121.93548387,0,4204.83870968,0,4023.22580645,0,0,0,?
2018-01-30 09:50:09.847000,4170.32258065,0,4154.51612903,0,4060.32258065,0,4026.4516129,0,4144.83870968,0,4131.61290323,0,4132.25806452,0,4051.29032258,0,4012.90322581,0,4098.38709677,0,3993.5483871,0,4111.29032258,0,4184.19354839,0,3998.38709677,0,0,0,?
2018-01-30 09:50:09.851000,4174.51612903,0,4161.29032258,0,4033.5483871,0,4001.29032258,0,4121.29032258,0,4116.12903226,0,4083.22580645,0,4078.38709677,0,3986.12903226,0,4105.80645161,0,3977.74193548,0,4098.70967742,0,4205.48387097,0,4038.38709677,0,0,0,?
2018-01-30 09:50:09.863000,4202.90322581,0,4163.5483871,0,4058.38709677,0,3979.03225806,0,4100.0,0,4122.90322581,0,4097.41935484,0,4033.87096774,0,3973.22580645,0,4122.90322581,0,3959.03225806,0,4127.09677419,0,4172.58064516,0,4010.64516129,0,0,0,?
2018-01-30 09:50:09.867000,4136.77419355,0,4163.87096774,0,4061.93548387,0,4001.29032258,0,4099.35483871,0,4132.25806452,0,4125.80645161,0,4043.22580645,0,3986.12903226,0,4142.58064516,0,4015.80645161,0,4112.25806452,0,4187.74193548,0,4000.32258065,0,0,0,?
2018-01-30 09:50:09.879000,4190.32258065,0,4176.12903226,0,3973.5483871,0,3939.35483871,0,4120.32258065,0,4102.25806452,0,4087.09677419,0,4049.03225806,0,3950.96774194,0,4120.0,0,3946.77419355,0,4100.96774194,0,4161.61290323,0,3970.32258065,0,0,0,?
2018-01-30 09:50:09.884000,4171.61290323,0,4180.64516129,0,4101.61290323,0,3995.80645161,0,4147.41935484,0,4141.61290323,0,4105.80645161,0,4054.19354839,0,4003.5483871,0,4105.16129032,0,4012.90322581,0,4105.48387097,0,4177.09677419,0,4039.67741935,0,0,0,?
2018-01-30 09:50:09.894000,4188.06451613,0,4181.61290323,0,4132.25806452,0,4055.16129032,0,4152.90322581,0,4150.64516129,0,4128.06451613,0,4092.90322581,0,4018.38709677,0,4133.5483871,0,4037.09677419,0,4153.87096774,0,4166.12903226,0,4063.5483871,0,0,0,?
2018-01-30 09:50:09.899000,4204.83870968,0,4151.61290323,0,4049.35483871,0,3981.93548387,0,4136.12903226,0,4137.74193548,0,4045.80645161,0,4048.70967742,0,3919.03225806,0,4112.90322581,0,3942.58064516,0,4115.48387097,0,4153.5483871,0,3980.32258065,0,0,0,?
2018-01-30 09:50:09.910000,4149.35483871,0,4142.25806452,0,4035.16129032,0,3982.25806452,0,4107.74193548,0,4140.32258065,0,4102.25806452,0,4058.70967742,0,3975.80645161,0,4131.61290323,0,3997.41935484,0,4133.87096774,0,4166.12903226,0,4000.64516129,0,0,0,?
2018-01-30 09:50:09.915000,4181.29032258,0,4160.96774194,0,4024.19354839,0,3923.22580645,0,4097.74193548,0,4145.48387097,0,4070.32258065,0,4016.12903226,0,3949.03225806,0,4129.67741935,0,3970.64516129,0,4108.06451613,0,4165.48387097,0,3998.38709677,0,0,0,?
2018-01-30 09:50:09.925000,4162.25806452,0,4135.16129032,0,4043.22580645,0,3955.80645161,0,4140.0,0,4135.80645161,0,4069.35483871,0,4016.12903226,0,3948.38709677,0,4111.61290323,0,3979.03225806,0,4102.90322581,0,4149.67741935,0,3967.09677419,0,0,0,?
2018-01-30 09:50:09.930000,4179.03225806,0,4167.41935484,0,4015.80645161,0,3978.38709677,0,4120.32258065,0,4128.70967742,0,4069.67741935,0,4019.03225806,0,3951.61290323,0,4114.83870968,0,3950.96774194,0,4112.58064516,0,4170.0,0,3970.32258065,0,0,0,?
2018-01-30 09:50:09.941000,4207.09677419,0,4166.4516129,0,3983.87096774,0,3911.93548387,0,4116.77419355,0,4128.06451613,0,4053.22580645,0,3999.35483871,0,3930.64516129,0,4089.67741935,0,3924.19354839,0,4113.5483871,0,4139.35483871,0,3973.87096774,0,0,0,?
2018-01-30 09:50:09.952000,4143.87096774,0,4166.77419355,0,4063.87096774,0,4000.96774194,0,4104.19354839,0,4107.09677419,0,4103.5483871,0,4039.35483871,0,3941.29032258,0,4131.93548387,0,3983.22580645,0,4115.48387097,0,4165.80645161,0,3985.48387097,0,0,0,?
2018-01-30 09:50:09.957000,4177.41935484,0,4167.09677419,0,4025.48387097,0,3962.58064516,0,4104.83870968,0,4136.4516129,0,4064.51612903,0,4018.38709677,0,3940.0,0,4107.74193548,0,3962.58064516,0,4082.90322581,0,4152.90322581,0,4000.0,0,0,0,?
2018-01-30 09:50:09.962000,4156.77419355,0,4149.03225806,0,4001.93548387,0,3945.80645161,0,4112.58064516,0,4128.06451613,0,4051.93548387,0,4019.03225806,0,3919.67741935,0,4089.03225806,0,3954.83870968,0,4073.87096774,0,4129.03225806,0,4000.32258065,0,0,0,?
2018-01-30 09:50:09.973000,4161.61290323,0,4153.87096774,0,4019.03225806,0,3979.03225806,0,4122.58064516,0,4136.4516129,0,4085.16129032,0,4016.12903226,0,3960.0,0,4121.93548387,0,3980.96774194,0,4110.0,0,4150.96774194,0,3998.06451613,0,0,0,?
2018-01-30 09:50:09.978000,4209.03225806,0,4158.06451613,0,3970.32258065,0,3883.87096774,0,4079.03225806,0,4112.25806452,0,4059.35483871,0,3982.25806452,0,3869.03225806,0,4079.67741935,0,3904.83870968,0,4112.58064516,0,4156.4516129,0,3978.06451613,0,0,0,?
2018-01-30 09:50:09.989000,4129.35483871,0,4147.09677419,0,3998.06451613,0,3971.29032258,0,4104.51612903,0,4118.70967742,0,4054.19354839,0,4042.25806452,0,3949.67741935,0,4091.61290323,0,3940.0,0,4092.58064516,0,4132.90322581,0,3965.16129032,0,0,0,?
2018-01-30 09:50:09.994000,4198.70967742,0,4155.16129032,0,3970.0,0,3954.83870968,0,4098.70967742,0,4112.25806452,0,4058.70967742,0,3977.41935484,0,3947.74193548,0,4091.61290323,0,3943.22580645,0,4112.90322581,0,4137.41935484,0,3955.80645161,0,0,0,?
2018-01-30 09:50:10.005000,4143.22580645,0,4150.96774194,0,3974.83870968,0,3936.77419355,0,4102.58064516,0,4109.67741935,0,4064.83870968,0,3982.25806452,0,3899.67741935,0,4089.03225806,0,3941.93548387,0,4103.87096774,0,4152.58064516,0,3938.06451613,0,0,0,?
2018-01-30 09:50:10.011000,4148.38709677,0,4150.96774194,0,3979.35483871,0,3960.96774194,0,4078.06451613,0,4099.67741935,0,4078.38709677,0,4026.12903226,0,3920.32258065,0,4106.77419355,0,3948.38709677,0,4069.35483871,0,4178.06451613,0,3994.19354839,0,0,0,?
2018-01-30 09:50:10.019000,4163.22580645,0,4159.03225806,0,3921.93548387,0,3855.16129032,0,4096.12903226,0,4076.4516129,0,4012.90322581,0,3965.80645161,0,3862.25806452,0,4112.58064516,0,3872.25806452,0,4063.22580645,0,4150.96774194,0,3960.64516129,0,0,0,?
2018-01-30 09:50:10.027000,4177.74193548,0,4166.77419355,0,4020.96774194,0,3926.12903226,0,4103.22580645,0,4109.35483871,0,4064.51612903,0,4013.22580645,0,3940.96774194,0,4100.64516129,0,3955.48387097,0,4071.93548387,0,4173.87096774,0,3975.48387097,0,0,0,?
2018-01-30 09:50:10.035000,4189.35483871,0,4178.06451613,0,4017.74193548,0,3923.22580645,0,4085.16129032,0,4102.90322581,0,4077.74193548,0,4009.03225806,0,3904.51612903,0,4098.38709677,0,3947.74193548,0,4105.80645161,0,4129.35483871,0,3965.80645161,0,0,0,?
2018-01-30 09:50:10.041000,4149.03225806,0,4161.29032258,0,4006.4516129,0,3911.61290323,0,4072.90322581,0,4089.03225806,0,4047.41935484,0,3981.61290323,0,3918.70967742,0,4108.38709677,0,3922.25806452,0,4084.83870968,0,4153.5483871,0,3964.83870968,0,0,0,?
2018-01-30 09:50:10.052000,4134.51612903,0,4164.51612903,0,4015.80645161,0,3939.35483871,0,4076.12903226,0,4101.29032258,0,4034.19354839,0,4022.25806452,0,3930.64516129,0,4092.90322581,0,3968.38709677,0,4086.77419355,0,4141.29032258,0,4001.61290323,0,0,0,?
2018-01-30 09:50:10.057000,4198.38709677,0,4133.22580645,0,3954.51612903,0,3913.22580645,0,4104.51612903,0,4087.74193548,0,4010.64516129,0,3990.64516129,0,3880.32258065,0,4082.25806452,0,3897.09677419,0,4096.77419355,0,4157.74193548,0,3942.25806452,0,0,0,?
2018-01-30 09:50:10.067000,4163.5483871,0,4176.77419355,0,3978.70967742,0,3939.35483871,0,4087.09677419,0,4099.35483871,0,4055.80645161,0,4017.09677419,0,3961.61290323,0,4105.48387097,0,3931.61290323,0,4076.77419355,0,4163.87096774,0,3965.80645161,0,0,0,?
2018-01-30 09:50:10.072000,4179.35483871,0,4136.12903226,0,3982.90322581,0,3926.12903226,0,4107.74193548,0,4085.16129032,0,4013.22580645,0,3978.70967742,0,3904.83870968,0,4102.25806452,0,3911.93548387,0,4112.90322581,0,4177.41935484,0,3961.93548387,0,0,0,?
2018-01-30 09:50:10.084000,4157.41935484,0,4148.70967742,0,3982.25806452,0,3891.93548387,0,4089.35483871,0,4111.93548387,0,4036.77419355,0,3967.74193548,0,3893.87096774,0,4081.29032258,0,3914.83870968,0,4092.25806452,0,4147.41935484,0,3950.32258065,0,0,0,?
2018-01-30 09:50:10.088000,4129.03225806,0,4148.06451613,0,3968.70967742,0,3943.87096774,0,4089.03225806,0,4111.61290323,0,4030.0,0,4005.48387097,0,3955.16129032,0,4114.51612903,0,3942.90322581,0,4079.35483871,0,4172.58064516,0,3972.25806452,0,0,0,?
2018-01-30 09:50:10.101000,4204.19354839,0,4145.16129032,0,3936.77419355,0,3860.64516129,0,4080.0,0,4110.32258065,0,3998.38709677,0,3947.09677419,0,3898.70967742,0,4077.41935484,0,3877.09677419,0,4071.29032258,0,4140.0,0,3915.80645161,0,0,0,?
2018-01-30 09:50:10.103000,4129.03225806,0,4162.25806452,0,3980.96774194,0,3945.16129032,0,4110.0,0,4106.12903226,0,4062.25806452,0,4027.41935484,0,3947.41935484,0,4100.96774194,0,3961.29032258,0,4070.64516129,0,4160.32258065,0,3984.51612903,0,0,0,?
2018-01-30 09:50:10.115000,4190.64516129,0,4195.80645161,0,4015.48387097,0,3937.41935484,0,4100.32258065,0,4107.09677419,0,4076.12903226,0,4021.29032258,0,3972.58064516,0,4120.32258065,0,3989.67741935,0,4084.51612903,0,4143.5483871,0,4012.90322581,0,0,0,?
2018-01-30 09:50:10.120000,4173.87096774,0,4184.83870968,0,3961.93548387,0,3883.22580645,0,4108.38709677,0,4079.35483871,0,4033.22580645,0,3988.06451613,0,3930.96774194,0,4076.4516129,0,3909.03225806,0,4078.38709677,0,4152.58064516,0,3941.61290323,0,0,0,?
2018-01-30 09:50:10.136000,4131.61290323,0,4175.48387097,0,3988.70967742,0,3976.12903226,0,4082.25806452,0,4095.80645161,0,4039.35483871,0,4024.83870968,0,3990.0,0,4105.48387097,0,3987.74193548,0,4113.5483871,0,4170.32258065,0,3963.5483871,0,0,0,?
2018-01-30 09:50:10.139000,4208.38709677,0,4186.4516129,0,3943.22580645,0,3920.32258065,0,4108.70967742,0,4070.0,0,4038.38709677,0,4011.93548387,0,3916.77419355,0,4088.06451613,0,3924.51612903,0,4070.64516129,0,4142.58064516,0,3982.58064516,0,0,0,?
2018-01-30 09:50:10.145000,4177.41935484,0,4175.48387097,0,3973.87096774,0,3910.0,0,4101.93548387,0,4107.41935484,0,4000.64516129,0,3975.16129032,0,3939.03225806,0,4080.64516129,0,3934.83870968,0,4082.58064516,0,4132.25806452,0,3978.38709677,0,0,0,?
2018-01-30 09:50:10.151000,4177.74193548,0,4175.48387097,0,3935.16129032,0,3910.0,0,4084.51612903,0,4070.32258065,0,4038.70967742,0,4009.67741935,0,3904.19354839,0,4091.61290323,0,3913.87096774,0,4095.16129032,0,4145.16129032,0,3941.29032258,0,0,0,?
2018-01-30 09:50:10.163000,4161.93548387,0,4173.87096774,0,3920.32258065,0,3901.61290323,0,4093.87096774,0,4076.12903226,0,4032.25806452,0,3986.12903226,0,3885.48387097,0,4080.32258065,0,3920.64516129,0,4064.83870968,0,4117.74193548,0,3938.38709677,0,0,0,?
2018-01-30 09:50:10.167000,4162.58064516,0,4191.29032258,0,3990.0,0,3956.12903226,0,4067.74193548,0,4077.09677419,0,4061.29032258,0,4020.32258065,0,3967.41935484,0,4112.58064516,0,3960.96774194,0,4102.90322581,0,4157.74193548,0,3962.90322581,0,0,0,?
2018-01-30 09:50:10.177000,4166.4516129,0,4162.25806452,0,3962.58064516,0,3895.48387097,0,4083.5483871,0,4065.16129032,0,4024.19354839,0,3979.35483871,0,3909.35483871,0,4080.96774194,0,3896.4516129,0,4072.90322581,0,4135.48387097,0,3962.90322581,0,0,0,?
2018-01-30 09:50:10.183000,4176.77419355,0,4201.29032258,0,3966.12903226,0,3945.48387097,0,4072.90322581,0,4096.77419355,0,4041.29032258,0,3993.5483871,0,3914.51612903,0,4091.29032258,0,3927.09677419,0,4110.64516129,0,4134.83870968,0,3982.25806452,0,0,0,?
2018-01-30 09:50:10.193000,4163.5483871,0,4163.87096774,0,3991.93548387,0,3943.87096774,0,4071.93548387,0,4095.80645161,0,4081.29032258,0,4018.06451613,0,3957.41935484,0,4107.09677419,0,3936.4516129,0,4110.64516129,0,4168.06451613,0,3980.0,0,0,0,?
2018-01-30 09:50:10.201000,4197.41935484,0,4210.64516129,0,3954.51612903,0,3871.93548387,0,4097.09677419,0,4070.64516129,0,4007.74193548,0,3996.4516129,0,3885.16129032,0,4070.96774194,0,3926.77419355,0,4058.70967742,0,4129.67741935,0,3970.32258065,0,0,0,?
2018-01-30 09:50:10.209000,4130.32258065,0,4200.64516129,0,3985.80645161,0,3972.58064516,0,4078.06451613,0,4088.06451613,0,4079.03225806,0,4002.58064516,0,4007.74193548,0,4120.64516129,0,4015.48387097,0,4079.35483871,0,4166.4516129,0,4004.19354839,0,0,0,?
2018-01-30 09:50:10.216000,4163.22580645,0,4168.38709677,0,3966.4516129,0,3947.09677419,0,4098.06451613,0,4070.0,0,4003.87096774,0,3970.96774194,0,3936.77419355,0,4108.06451613,0,3954.83870968,0,4099.67741935,0,4159.35483871,0,3981.61290323,0,0,0,?
2018-01-30 09:50:10.226000,4144.51612903,0,4210.96774194,0,3980.64516129,0,3926.12903226,0,4109.03225806,0,4068.70967742,0,4021.29032258,0,3979.35483871,0,3949.67741935,0,4103.22580645,0,4014.51612903,0,4108.06451613,0,4145.48387097,0,3968.70967742,0,0,0,?
2018-01-30 09:50:10.230000,4160.96774194,0,4205.16129032,0,4043.87096774,0,3945.48387097,0,4105.16129032,0,4079.03225806,0,4060.32258065,0,4040.0,0,3969.67741935,0,4141.93548387,0,4016.77419355,0,4091.93548387,0,4178.38709677,0,4035.80645161,0,0,0,?
2018-01-30 09:50:10.240000,4192.58064516,0,4164.19354839,0,3973.87096774,0,3947.74193548,0,4090.96774194,0,4068.70967742,0,4041.93548387,0,3986.77419355,0,3972.90322581,0,4119.35483871,0,3962.90322581,0,4104.19354839,0,4146.77419355,0,4012.58064516,0,0,0,?
2018-01-30 09:50:10.246000,4176.77419355,0,4177.74193548,0,4036.77419355,0,3995.80645161,0,4072.90322581,0,4083.5483871,0,4076.77419355,0,4022.58064516,0,4030.96774194,0,4103.87096774,0,4060.32258065,0,4112.25806452,0,4131.29032258,0,4001.61290323,0,0,0,?
2018-01-30 09:50:10.256000,4193.5483871,0,4184.19354839,0,4012.90322581,0,3911.93548387,0,4084.19354839,0,4078.70967742,0,4041.29032258,0,4028.38709677,0,3987.09677419,0,4100.0,0,4024.19354839,0,4089.67741935,0,4136.77419355,0,4024.51612903,0,0,0,?
2018-01-30 09:50:10.262000,4160.96774194,0,4176.77419355,0,4046.4516129,0,3980.64516129,0,4096.12903226,0,4080.32258065,0,4017.09677419,0,4032.58064516,0,4000.96774194,0,4132.58064516,0,4009.35483871,0,4078.06451613,0,4156.77419355,0,3979.35483871,0,0,0,?
2018-01-30 09:50:10.273000,4134.83870968,0,4175.48387097,0,4022.58064516,0,3967.41935484,0,4089.35483871,0,4104.51612903,0,4027.09677419,0,4009.67741935,0,4013.22580645,0,4128.70967742,0,4014.19354839,0,4066.77419355,0,4156.4516129,0,4001.93548387,0,0,0,?
2018-01-30 09:50:10.277000,4198.38709677,0,4191.93548387,0,3960.64516129,0,3904.83870968,0,4087.74193548,0,4092.25806452,0,3992.25806452,0,3964.19354839,0,3961.61290323,0,4116.4516129,0,4006.77419355,0,4071.29032258,0,4149.03225806,0,3986.4516129,0,0,0,?
2018-01-30 09:50:10.288000,4166.4516129,0,4234.19354839,0,4059.67741935,0,4082.90322581,0,4133.87096774,0,4117.09677419,0,4112.90322581,0,4048.38709677,0,4114.51612903,0,4161.61290323,0,4146.4516129,0,4137.09677419,0,4184.19354839,0,4065.16129032,0,0,0,?
2018-01-30 09:50:10.293000,4196.12903226,0,4217.41935484,0,4004.51612903,0,4015.48387097,0,4101.29032258,0,4109.03225806,0,4037.09677419,0,3921.61290323,0,4027.09677419,0,4150.64516129,0,4054.83870968,0,4072.25806452,0,4133.87096774,0,4024.19354839,0,0,0,?
2018-01-30 09:50:10.304000,4208.38709677,0,4289.35483871,0,4241.29032258,0,4287.09677419,0,4195.48387097,0,4136.12903226,0,4151.93548387,0,4019.35483871,0,4238.70967742,0,4237.74193548,0,4278.38709677,0,4175.48387097,0,4237.41935484,0,4204.19354839,0,0,0,?
2018-01-30 09:50:10.308000,4225.16129032,0,4489.35483871,0,4901.29032258,0,5089.67741935,0,4420.0,0,4404.19354839,0,4561.61290323,0,4462.58064516,0,5027.09677419,0,4461.29032258,0,5076.77419355,0,4438.06451613,0,4457.41935484,0,4749.35483871,0,0,0,?
2018-01-30 09:50:10.319000,4270.64516129,0,4565.80645161,0,5159.67741935,0,5383.5483871,0,4530.96774194,0,4464.51612903,0,4691.29032258,0,4622.90322581,0,5292.25806452,0,4556.12903226,0,5268.06451613,0,4534.83870968,0,4490.96774194,0,4894.83870968,0,0,0,?
2018-01-30 09:50:10.325000,4242.25806452,0,4495.80645161,0,5054.19354839,0,5187.09677419,0,4444.51612903,0,4385.16129032,0,4592.58064516,0,4514.83870968,0,5116.4516129,0,4513.22580645,0,5133.5483871,0,4429.67741935,0,4435.80645161,0,4740.0,0,0,0,?
2018-01-30 09:50:10.335000,4273.87096774,0,4457.74193548,0,5135.80645161,0,5122.25806452,0,4428.70967742,0,4390.0,0,4595.80645161,0,4510.64516129,0,5080.96774194,0,4517.09677419,0,5124.51612903,0,4419.35483871,0,4420.96774194,0,4766.4516129,0,0,0,?
2018-01-30 09:50:10.340000,4256.4516129,0,4480.0,0,5291.29032258,0,5200.64516129,0,4480.0,0,4362.90322581,0,4613.5483871,0,4527.41935484,0,5098.38709677,0,4555.48387097,0,5167.09677419,0,4445.80645161,0,4463.22580645,0,4757.09677419,0,0,0,?
2018-01-30 09:50:10.351000,4225.48387097,0,4467.09677419,0,5330.64516129,0,5163.5483871,0,4438.70967742,0,4340.64516129,0,4594.19354839,0,4502.25806452,0,5071.61290323,0,4620.64516129,0,5148.06451613,0,4415.80645161,0,4431.93548387,0,4717.41935484,0,0,0,?
2018-01-30 09:50:10.356000,4261.29032258,0,4488.70967742,0,5325.48387097,0,5093.5483871,0,4417.09677419,0,4325.48387097,0,4592.25806452,0,4398.06451613,0,5011.61290323,0,4600.32258065,0,5087.74193548,0,4430.64516129,0,4430.32258065,0,4754.19354839,0,0,0,?
2018-01-30 09:50:10.366000,4224.83870968,0,4434.19354839,0,5307.74193548,0,5121.29032258,0,4392.58064516,0,4330.32258065,0,4549.03225806,0,4370.64516129,0,4995.16129032,0,4604.19354839,0,5069.67741935,0,4411.93548387,0,4428.06451613,0,4716.77419355,0,0,0,?
2018-01-30 09:50:10.372000,4234.19354839,0,4361.61290323,0,5101.61290323,0,4887.09677419,0,4331.61290323,0,4269.03225806,0,4401.29032258,0,4228.70967742,0,4735.16129032,0,4620.32258065,0,4830.0,0,4286.77419355,0,4352.90322581,0,4532.25806452,0,0,0,?
2018-01-30 09:50:10.383000,4232.90322581,0,4338.06451613,0,5082.25806452,0,4690.96774194,0,4255.16129032,0,4219.67741935,0,4314.83870968,0,4126.77419355,0,4577.09677419,0,4620.64516129,0,4657.74193548,0,4250.64516129,0,4311.29032258,0,4407.74193548,0,0,0,?
2018-01-30 09:50:10.387000,4202.90322581,0,4367.09677419,0,5162.58064516,0,4710.0,0,4303.5483871,0,4204.51612903,0,4360.0,0,4178.38709677,0,4624.19354839,0,4662.25806452,0,4747.09677419,0,4271.93548387,0,4317.09677419,0,4462.90322581,0,0,0,?
2018-01-30 09:50:10.398000,4231.29032258,0,4386.77419355,0,5134.83870968,0,4667.41935484,0,4274.19354839,0,4211.93548387,0,4335.48387097,0,4111.29032258,0,4550.96774194,0,4715.48387097,0,4682.58064516,0,4267.09677419,0,4329.35483871,0,4435.48387097,0,0,0,?
2018-01-30 09:50:10.404000,4200.64516129,0,4396.4516129,0,5212.25806452,0,4690.0,0,4317.09677419,0,4235.16129032,0,4370.64516129,0,4163.5483871,0,4629.35483871,0,4773.87096774,0,4715.80645161,0,4252.58064516,0,4333.87096774,0,4467.74193548,0,0,0,?
2018-01-30 09:50:10.415000,4209.03225806,0,4366.12903226,0,5248.38709677,0,4719.03225806,0,4266.12903226,0,4198.06451613,0,4372.58064516,0,4176.4516129,0,4636.77419355,0,4762.90322581,0,4719.67741935,0,4270.96774194,0,4312.90322581,0,4462.58064516,0,0,0,?
2018-01-30 09:50:10.419000,4196.77419355,0,4372.90322581,0,5194.19354839,0,4660.32258065,0,4291.93548387,0,4210.0,0,4310.0,0,4116.77419355,0,4601.61290323,0,4776.4516129,0,4701.61290323,0,4255.48387097,0,4320.64516129,0,4430.0,0,0,0,?
2018-01-30 09:50:10.430000,4190.0,0,4369.35483871,0,5066.12903226,0,4656.4516129,0,4234.83870968,0,4202.90322581,0,4281.61290323,0,4076.77419355,0,4559.67741935,0,4771.93548387,0,4682.25806452,0,4231.93548387,0,4291.29032258,0,4430.0,0,0,0,?
2018-01-30 09:50:10.434000,4215.48387097,0,4332.90322581,0,5068.38709677,0,4521.29032258,0,4181.61290323,0,4142.90322581,0,4237.41935484,0,4044.51612903,0,4416.12903226,0,4718.70967742,0,4563.87096774,0,4198.06451613,0,4295.16129032,0,4343.22580645,0,0,0,?
2018-01-30 09:50:10.446000,4197.74193548,0,4400.32258065,0,5351.61290323,0,4644.83870968,0,4282.58064516,0,4198.70967742,0,4356.12903226,0,4152.25806452,0,4571.29032258,0,4833.5483871,0,4750.0,0,4288.06451613,0,4296.77419355,0,4468.70967742,0,0,0,?
2018-01-30 09:50:10.451000,4199.67741935,0,4376.4516129,0,5285.16129032,0,4672.58064516,0,4297.41935484,0,4261.61290323,0,4402.90322581,0,4204.83870968,0,4652.25806452,0,4917.41935484,0,4805.48387097,0,4303.22580645,0,4359.67741935,0,4469.03225806,0,0,0,?
2018-01-30 09:50:10.461000,4205.80645161,0,4352.58064516,0,4971.61290323,0,4477.09677419,0,4171.29032258,0,4160.32258065,0,4231.93548387,0,3980.0,0,4344.51612903,0,4872.58064516,0,4499.67741935,0,4180.32258065,0,4262.90322581,0,4361.29032258,0,0,0,?
2018-01-30 09:50:10.467000,4188.38709677,0,4337.74193548,0,5077.41935484,0,4456.77419355,0,4168.38709677,0,4132.90322581,0,4265.48387097,0,4002.58064516,0,4355.80645161,0,4772.90322581,0,4483.5483871,0,4193.5483871,0,4309.35483871,0,4428.06451613,0,0,0,?
2018-01-30 09:50:10.475000,4220.96774194,0,4354.83870968,0,5264.19354839,0,4585.48387097,0,4318.38709677,0,4200.32258065,0,4340.64516129,0,4161.93548387,0,4522.58064516,0,4782.90322581,0,4645.48387097,0,4251.29032258,0,4352.90322581,0,4456.4516129,0,0,0,?
2018-01-30 09:50:10.485000,4182.90322581,0,4367.74193548,0,5237.41935484,0,4644.51612903,0,4319.35483871,0,4225.80645161,0,4371.29032258,0,4167.74193548,0,4543.87096774,0,4785.16129032,0,4724.51612903,0,4254.19354839,0,4322.25806452,0,4430.64516129,0,0,0,?
2018-01-30 09:50:10.493000,4195.80645161,0,4308.38709677,0,5030.0,0,4535.48387097,0,4207.74193548,0,4175.48387097,0,4260.64516129,0,4047.09677419,0,4415.48387097,0,4695.48387097,0,4578.70967742,0,4172.58064516,0,4292.58064516,0,4396.12903226,0,0,0,?
2018-01-30 09:50:10.498000,4204.19354839,0,4338.06451613,0,4940.96774194,0,4410.64516129,0,4182.58064516,0,4179.03225806,0,4241.29032258,0,4014.51612903,0,4362.25806452,0,4624.83870968,0,4496.77419355,0,4147.41935484,0,4285.80645161,0,4348.38709677,0,0,0,?
2018-01-30 09:50:10.508000,4208.06451613,0,4316.77419355,0,4951.93548387,0,4545.48387097,0,4267.74193548,0,4190.96774194,0,4317.74193548,0,4130.96774194,0,4442.58064516,0,4725.16129032,0,4595.48387097,0,4200.96774194,0,4329.03225806,0,4344.51612903,0,0,0,?
2018-01-30 09:50:10.514000,4197.41935484,0,4301.61290323,0,4682.25806452,0,4498.38709677,0,4273.22580645,0,4225.80645161,0,4290.64516129,0,4106.77419355,0,4386.77419355,0,4748.70967742,0,4473.87096774,0,4187.41935484,0,4329.67741935,0,4309.67741935,0,0,0,?
2018-01-30 09:50:10.524000,4157.41935484,0,4316.4516129,0,4549.35483871,0,4492.25806452,0,4237.09677419,0,4223.22580645,0,4333.87096774,0,4120.96774194,0,4396.4516129,0,4703.87096774,0,4494.83870968,0,4217.41935484,0,4287.41935484,0,4372.58064516,0,0,0,?
2018-01-30 09:50:10.529000,4178.70967742,0,4321.61290323,0,4544.51612903,0,4540.96774194,0,4230.64516129,0,4196.77419355,0,4332.25806452,0,4105.80645161,0,4410.96774194,0,4749.03225806,0,4487.41935484,0,4215.80645161,0,4275.80645161,0,4335.80645161,0,0,0,?
2018-01-30 09:50:10.541000,4171.93548387,0,4281.93548387,0,4420.64516129,0,4432.58064516,0,4204.83870968,0,4175.16129032,0,4260.32258065,0,4076.4516129,0,4267.09677419,0,4717.09677419,0,4365.80645161,0,4218.38709677,0,4251.29032258,0,4236.12903226,0,0,0,?
2018-01-30 09:50:10.552000,4132.90322581,0,4269.67741935,0,4456.4516129,0,4450.32258065,0,4269.35483871,0,4196.4516129,0,4291.93548387,0,4171.93548387,0,4354.83870968,0,4774.51612903,0,4389.35483871,0,4261.29032258,0,4283.22580645,0,4245.16129032,0,0,0,?
2018-01-30 09:50:10.557000,4181.29032258,0,4272.90322581,0,4429.35483871,0,4380.64516129,0,4254.51612903,0,4237.41935484,0,4296.77419355,0,4234.51612903,0,4251.29032258,0,4721.29032258,0,4319.67741935,0,4246.4516129,0,4267.41935484,0,4251.61290323,0,0,0,?
2018-01-30 09:50:10.561000,4167.74193548,0,4279.67741935,0,4359.35483871,0,4337.41935484,0,4255.48387097,0,4229.03225806,0,4277.74193548,0,4235.48387097,0,4199.35483871,0,4703.22580645,0,4246.4516129,0,4212.90322581,0,4243.22580645,0,4214.19354839,0,0,0,?
2018-01-30 09:50:10.571000,4199.35483871,0,4289.35483871,0,4432.58064516,0,4391.93548387,0,4291.29032258,0,4199.67741935,0,4317.74193548,0,4290.96774194,0,4277.74193548,0,4680.0,0,4294.83870968,0,4230.96774194,0,4260.0,0,4225.80645161,0,0,0,?
2018-01-30 09:50:10.577000,4185.48387097,0,4300.32258065,0,4413.87096774,0,4325.48387097,0,4265.80645161,0,4234.83870968,0,4259.35483871,0,4262.58064516,0,4220.96774194,0,4659.67741935,0,4252.90322581,0,4230.0,0,4293.22580645,0,4225.80645161,0,0,0,?
2018-01-30 09:50:10.587000,4136.4516129,0,4290.32258065,0,4429.03225806,0,4406.12903226,0,4288.70967742,0,4213.87096774,0,4343.5483871,0,4315.48387097,0,4280.64516129,0,4685.80645161,0,4277.41935484,0,4231.29032258,0,4284.19354839,0,4255.16129032,0,0,0,?
2018-01-30 09:50:10.593000,4182.90322581,0,4285.80645161,0,4420.96774194,0,4345.80645161,0,4254.19354839,0,4210.32258065,0,4316.12903226,0,4306.12903226,0,4216.77419355,0,4650.32258065,0,4275.80645161,0,4240.64516129,0,4276.77419355,0,4243.22580645,0,0,0,?
2018-01-30 09:50:10.604000,4176.12903226,0,4262.58064516,0,4417.74193548,0,4357.09677419,0,4267.74193548,0,4201.61290323,0,4335.80645161,0,4274.51612903,0,4227.74193548,0,4652.90322581,0,4239.03225806,0,4207.09677419,0,4282.25806452,0,4194.19354839,0,0,0,?
2018-01-30 09:50:10.609000,4177.74193548,0,4244.19354839,0,4391.93548387,0,4346.4516129,0,4276.4516129,0,4236.12903226,0,4298.06451613,0,4293.22580645,0,4244.19354839,0,4639.35483871,0,4197.74193548,0,4224.83870968,0,4294.19354839,0,4215.48387097,0,0,0,?
2018-01-30 09:50:10.620000,4183.5483871,0,4230.0,0,4330.32258065,0,4285.80645161,0,4266.4516129,0,4226.4516129,0,4307.74193548,0,4229.67741935,0,4185.48387097,0,4622.58064516,0,4164.51612903,0,4182.90322581,0,4237.41935484,0,4175.48387097,0,0,0,?
2018-01-30 09:50:10.623000,4153.87096774,0,4236.77419355,0,4399.67741935,0,4399.03225806,0,4290.0,0,4234.51612903,0,4329.03225806,0,4326.77419355,0,4259.03225806,0,4672.25806452,0,4239.03225806,0,4206.12903226,0,4269.03225806,0,4242.25806452,0,0,0,?
2018-01-30 09:50:10.634000,4183.22580645,0,4228.06451613,0,4397.41935484,0,4340.32258065,0,4292.90322581,0,4214.83870968,0,4330.64516129,0,4290.32258065,0,4203.5483871,0,4710.32258065,0,4194.51612903,0,4232.58064516,0,4274.51612903,0,4227.41935484,0,0,0,?
2018-01-30 09:50:10.641000,4189.03225806,0,4256.4516129,0,4362.25806452,0,4283.87096774,0,4257.09677419,0,4232.25806452,0,4273.5483871,0,4267.09677419,0,4145.16129032,0,4684.83870968,0,4166.77419355,0,4205.80645161,0,4230.96774194,0,4181.61290323,0,0,0,?
2018-01-30 09:50:10.650000,4183.5483871,0,4271.29032258,0,4394.51612903,0,4307.74193548,0,4252.58064516,0,4236.12903226,0,4326.4516129,0,4251.61290323,0,4194.19354839,0,4700.64516129,0,4194.19354839,0,4207.74193548,0,4259.35483871,0,4181.93548387,0,0,0,?
2018-01-30 09:50:10.655000,4185.48387097,0,4267.41935484,0,4367.74193548,0,4251.29032258,0,4267.09677419,0,4224.19354839,0,4295.48387097,0,4204.51612903,0,4142.58064516,0,4651.93548387,0,4146.12903226,0,4218.70967742,0,4230.96774194,0,4169.03225806,0,0,0,?
2018-01-30 09:50:10.666000,4157.41935484,0,4263.87096774,0,4380.64516129,0,4324.19354839,0,4280.96774194,0,4222.58064516,0,4312.58064516,0,4276.4516129,0,4226.77419355,0,4691.93548387,0,4169.35483871,0,4234.83870968,0,4258.06451613,0,4201.61290323,0,0,0,?
2018-01-30 09:50:10.670000,4175.48387097,0,4232.58064516,0,4369.35483871,0,4336.77419355,0,4287.41935484,0,4242.25806452,0,4334.19354839,0,4274.51612903,0,4199.03225806,0,4713.22580645,0,4214.19354839,0,4252.90322581,0,4263.22580645,0,4235.16129032,0,0,0,?
2018-01-30 09:50:10.686000,4171.61290323,0,4270.0,0,4340.0,0,4334.51612903,0,4254.83870968,0,4215.16129032,0,4320.32258065,0,4266.12903226,0,4187.74193548,0,4692.90322581,0,4129.67741935,0,4214.19354839,0,4232.90322581,0,4178.06451613,0,0,0,?
2018-01-30 09:50:10.687000,4150.96774194,0,4267.74193548,0,4331.29032258,0,4328.06451613,0,4234.51612903,0,4209.67741935,0,4302.58064516,0,4263.5483871,0,4214.51612903,0,4691.93548387,0,4176.77419355,0,4254.19354839,0,4267.74193548,0,4193.5483871,0,0,0,?
2018-01-30 09:50:10.698000,4182.25806452,0,4229.35483871,0,4308.70967742,0,4264.19354839,0,4272.58064516,0,4209.67741935,0,4291.93548387,0,4226.12903226,0,4148.70967742,0,4688.38709677,0,4147.41935484,0,4220.64516129,0,4260.32258065,0,4168.70967742,0,0,0,?
2018-01-30 09:50:10.702000,4166.77419355,0,4231.61290323,0,4363.22580645,0,4344.51612903,0,4276.4516129,0,4241.93548387,0,4296.4516129,0,4242.90322581,0,4193.22580645,0,4676.4516129,0,4174.19354839,0,4256.4516129,0,4258.06451613,0,4190.96774194,0,0,0,?
2018-01-30 09:50:10.715000,4179.35483871,0,4226.77419355,0,4294.19354839,0,4332.58064516,0,4233.22580645,0,4230.32258065,0,4323.87096774,0,4248.38709677,0,4193.87096774,0,4672.25806452,0,4167.41935484,0,4251.29032258,0,4266.12903226,0,4165.80645161,0,0,0,?
2018-01-30 09:50:10.719000,4201.29032258,0,4244.83870968,0,4255.16129032,0,4233.22580645,0,4237.74193548,0,4194.83870968,0,4308.06451613,0,4196.4516129,0,4096.77419355,0,4668.06451613,0,4067.74193548,0,4241.93548387,0,4213.22580645,0,4134.51612903,0,0,0,?
2018-01-30 09:50:10.730000,4183.5483871,0,4236.4516129,0,4302.25806452,0,4233.22580645,0,4221.61290323,0,4226.4516129,0,4303.87096774,0,4212.25806452,0,4162.58064516,0,4676.77419355,0,4135.48387097,0,4207.09677419,0,4240.0,0,4161.93548387,0,0,0,?
2018-01-30 09:50:10.735000,4198.38709677,0,4255.48387097,0,4231.61290323,0,4189.03225806,0,4227.74193548,0,4210.96774194,0,4231.61290323,0,4172.25806452,0,4071.61290323,0,4638.70967742,0,4058.06451613,0,4231.61290323,0,4212.90322581,0,4120.0,0,0,0,?
2018-01-30 09:50:10.746000,4151.93548387,0,4253.87096774,0,4275.16129032,0,4256.77419355,0,4204.51612903,0,4195.48387097,0,4268.06451613,0,4192.25806452,0,4154.83870968,0,4644.83870968,0,4121.29032258,0,4238.38709677,0,4227.41935484,0,4135.16129032,0,0,0,?
2018-01-30 09:50:10.750000,4162.25806452,0,4251.61290323,0,4236.4516129,0,4260.0,0,4214.19354839,0,4232.90322581,0,4272.90322581,0,4192.90322581,0,4125.80645161,0,4640.32258065,0,4066.77419355,0,4254.19354839,0,4258.06451613,0,4169.35483871,0,0,0,?
2018-01-30 09:50:10.763000,4205.80645161,0,4262.58064516,0,4205.16129032,0,4193.87096774,0,4210.96774194,0,4218.38709677,0,4268.70967742,0,4177.41935484,0,4082.58064516,0,4620.32258065,0,4072.58064516,0,4231.61290323,0,4220.32258065,0,4153.5483871,0,0,0,?
2018-01-30 09:50:10.765000,4158.38709677,0,4272.58064516,0,4302.58064516,0,4281.93548387,0,4200.32258065,0,4200.32258065,0,4289.67741935,0,4192.25806452,0,4195.16129032,0,4685.16129032,0,4132.25806452,0,4234.83870968,0,4245.80645161,0,4164.19354839,0,0,0,?
2018-01-30 09:50:10.777000,4182.58064516,0,4261.93548387,0,4200.96774194,0,4197.09677419,0,4183.5483871,0,4216.77419355,0,4249.67741935,0,4133.87096774,0,4115.80645161,0,4624.19354839,0,4024.19354839,0,4227.41935484,0,4206.4516129,0,4124.51612903,0,0,0,?
2018-01-30 09:50:10.782000,4144.83870968,0,4260.0,0,4208.06451613,0,4200.64516129,0,4186.77419355,0,4207.41935484,0,4251.29032258,0,4140.0,0,4127.09677419,0,4634.83870968,0,4059.35483871,0,4253.22580645,0,4204.51612903,0,4154.51612903,0,0,0,?
2018-01-30 09:50:10.793000,4179.35483871,0,4234.83870968,0,4244.51612903,0,4194.51612903,0,4191.93548387,0,4216.12903226,0,4268.70967742,0,4150.96774194,0,4141.61290323,0,4630.96774194,0,4107.09677419,0,4241.29032258,0,4235.16129032,0,4182.90322581,0,0,0,?
2018-01-30 09:50:10.798000,4201.29032258,0,4239.35483871,0,4253.22580645,0,4201.61290323,0,4201.29032258,0,4221.29032258,0,4273.87096774,0,4146.4516129,0,4124.51612903,0,4636.77419355,0,4066.77419355,0,4256.4516129,0,4199.03225806,0,4177.74193548,0,0,0,?
2018-01-30 09:50:10.809000,4163.87096774,0,4227.09677419,0,4227.41935484,0,4232.90322581,0,4240.0,0,4239.03225806,0,4272.25806452,0,4142.90322581,0,4165.16129032,0,4648.38709677,0,4065.16129032,0,4228.38709677,0,4234.83870968,0,4182.25806452,0,0,0,?
2018-01-30 09:50:10.817000,4190.32258065,0,4227.09677419,0,4208.06451613,0,4166.77419355,0,4209.35483871,0,4198.38709677,0,4219.03225806,0,4131.61290323,0,4077.09677419,0,4651.61290323,0,4000.64516129,0,4214.19354839,0,4214.51612903,0,4163.5483871,0,0,0,?
2018-01-30 09:50:10.823000,4163.22580645,0,4241.93548387,0,4266.4516129,0,4196.12903226,0,4240.64516129,0,4199.03225806,0,4258.06451613,0,4157.09677419,0,4105.80645161,0,4632.90322581,0,4056.12903226,0,4249.67741935,0,4212.58064516,0,4138.06451613,0,0,0,?
2018-01-30 09:50:10.830000,4197.41935484,0,4246.4516129,0,4245.48387097,0,4241.61290323,0,4217.41935484,0,4198.70967742,0,4227.74193548,0,4174.83870968,0,4158.70967742,0,4667.09677419,0,4071.93548387,0,4233.5483871,0,4235.48387097,0,4191.61290323,0,0,0,?
2018-01-30 09:50:10.839000,4208.38709677,0,4272.58064516,0,4175.48387097,0,4140.64516129,0,4180.96774194,0,4176.4516129,0,4225.16129032,0,4091.93548387,0,4050.32258065,0,4635.48387097,0,3973.87096774,0,4209.35483871,0,4231.29032258,0,4149.35483871,0,0,0,?
2018-01-30 09:50:10.845000,4178.06451613,0,4274.19354839,0,4264.19354839,0,4241.61290323,0,4240.96774194,0,4220.96774194,0,4230.32258065,0,4135.48387097,0,4148.70967742,0,4615.48387097,0,4032.58064516,0,4270.32258065,0,4228.38709677,0,4202.90322581,0,0,0,?
2018-01-30 09:50:10.856000,4168.38709677,0,4234.83870968,0,4236.12903226,0,4137.09677419,0,4220.96774194,0,4225.48387097,0,4259.03225806,0,4122.58064516,0,4107.74193548,0,4640.64516129,0,4066.4516129,0,4264.51612903,0,4233.5483871,0,4189.67741935,0,0,0,?
2018-01-30 09:50:10.860000,4150.32258065,0,4261.61290323,0,4220.64516129,0,4171.29032258,0,4204.83870968,0,4199.35483871,0,4230.96774194,0,4095.48387097,0,4140.64516129,0,4622.58064516,0,4034.83870968,0,4261.29032258,0,4210.64516129,0,4170.96774194,0,0,0,?
2018-01-30 09:50:10.871000,4148.70967742,0,4250.32258065,0,4206.4516129,0,4191.29032258,0,4210.96774194,0,4208.70967742,0,4203.5483871,0,4100.64516129,0,4181.61290323,0,4657.09677419,0,4066.4516129,0,4262.58064516,0,4229.35483871,0,4203.87096774,0,0,0,?
2018-01-30 09:50:10.876000,4179.67741935,0,4253.22580645,0,4187.09677419,0,4138.06451613,0,4187.09677419,0,4188.38709677,0,4184.19354839,0,4040.64516129,0,4073.87096774,0,4622.58064516,0,3973.5483871,0,4199.67741935,0,4232.90322581,0,4142.90322581,0,0,0,?
2018-01-30 09:50:10.887000,4161.93548387,0,4263.22580645,0,4235.80645161,0,4154.19354839,0,4200.0,0,4180.0,0,4217.09677419,0,4112.58064516,0,4136.77419355,0,4620.0,0,4037.41935484,0,4256.12903226,0,4204.83870968,0,4142.90322581,0,0,0,?
2018-01-30 09:50:10.891000,4194.19354839,0,4259.67741935,0,4189.03225806,0,4141.29032258,0,4202.90322581,0,4204.83870968,0,4168.38709677,0,4068.06451613,0,4116.4516129,0,4632.90322581,0,3976.77419355,0,4220.64516129,0,4237.74193548,0,4161.61290323,0,0,0,?
2018-01-30 09:50:10.902000,4174.51612903,0,4237.09677419,0,4137.74193548,0,4132.58064516,0,4205.80645161,0,4190.64516129,0,4163.5483871,0,4048.06451613,0,4086.4516129,0,4588.38709677,0,4009.35483871,0,4204.19354839,0,4207.09677419,0,4148.06451613,0,0,0,?
2018-01-30 09:50:10.907000,4131.29032258,0,4244.19354839,0,4202.58064516,0,4132.25806452,0,4181.61290323,0,4210.64516129,0,4231.93548387,0,4078.38709677,0,4148.70967742,0,4615.48387097,0,4049.67741935,0,4246.77419355,0,4240.96774194,0,4154.19354839,0,0,0,?
2018-01-30 09:50:10.920000,4199.03225806,0,4242.90322581,0,4143.87096774,0,4058.06451613,0,4189.67741935,0,4195.16129032,0,4180.64516129,0,4022.90322581,0,4075.16129032,0,4626.12903226,0,3962.90322581,0,4195.16129032,0,4198.70967742,0,4127.74193548,0,0,0,?
2018-01-30 09:50:10.924000,4166.12903226,0,4241.29032258,0,4219.67741935,0,4168.70967742,0,4169.67741935,0,4206.12903226,0,4198.70967742,0,4066.12903226,0,4138.06451613,0,4602.25806452,0,4031.61290323,0,4243.22580645,0,4221.61290323,0,4155.48387097,0,0,0,?
2018-01-30 09:50:10.935000,4195.48387097,0,4251.29032258,0,4174.19354839,0,4136.77419355,0,4204.51612903,0,4191.29032258,0,4169.03225806,0,4043.22580645,0,4098.38709677,0,4603.22580645,0,3983.22580645,0,4221.61290323,0,4222.25806452,0,4135.16129032,0,0,0,?
2018-01-30 09:50:10.939000,4162.25806452,0,4242.58064516,0,4170.0,0,4113.87096774,0,4162.25806452,0,4204.51612903,0,4164.83870968,0,4081.29032258,0,4110.0,0,4587.74193548,0,3984.19354839,0,4195.16129032,0,4201.93548387,0,4152.25806452,0,0,0,?
2018-01-30 09:50:10.950000,4150.0,0,4251.61290323,0,4224.51612903,0,4206.77419355,0,4180.0,0,4187.09677419,0,4241.93548387,0,4107.41935484,0,4185.16129032,0,4634.83870968,0,4064.51612903,0,4249.67741935,0,4223.87096774,0,4188.70967742,0,0,0,?
2018-01-30 09:50:10.955000,4204.19354839,0,4257.41935484,0,4194.51612903,0,4134.51612903,0,4191.61290323,0,4201.29032258,0,4193.5483871,0,4059.03225806,0,4127.09677419,0,4607.41935484,0,4040.0,0,4220.64516129,0,4206.12903226,0,4153.87096774,0,0,0,?
2018-01-30 09:50:10.965000,4169.67741935,0,4253.22580645,0,4222.90322581,0,4132.25806452,0,4171.93548387,0,4209.67741935,0,4202.90322581,0,4090.32258065,0,4204.83870968,0,4616.12903226,0,4050.96774194,0,4257.74193548,0,4214.19354839,0,4144.19354839,0,0,0,?
2018-01-30 09:50:10.971000,4194.19354839,0,4250.0,0,4210.96774194,0,4120.32258065,0,4198.70967742,0,4168.06451613,0,4202.58064516,0,4067.74193548,0,4135.16129032,0,4610.32258065,0,4036.12903226,0,4235.48387097,0,4228.06451613,0,4175.80645161,0,0,0,?
2018-01-30 09:50:10.982000,4157.09677419,0,4230.64516129,0,4136.4516129,0,4140.32258065,0,4185.48387097,0,4200.32258065,0,4167.74193548,0,4069.03225806,0,4135.48387097,0,4597.41935484,0,4012.90322581,0,4215.80645161,0,4200.0,0,4140.64516129,0,0,0,?
2018-01-30 09:50:10.987000,4171.93548387,0,4232.90322581,0,4210.96774194,0,4189.03225806,0,4163.22580645,0,4203.87096774,0,4201.61290323,0,4077.74193548,0,4193.5483871,0,4636.12903226,0,4110.96774194,0,4271.61290323,0,4237.74193548,0,4210.64516129,0,0,0,?
2018-01-30 09:50:10.997000,4165.16129032,0,4233.22580645,0,4164.83870968,0,4133.87096774,0,4192.90322581,0,4199.67741935,0,4167.74193548,0,4040.64516129,0,4103.5483871,0,4624.51612903,0,4046.12903226,0,4205.80645161,0,4202.90322581,0,4134.19354839,0,0,0,?
2018-01-30 09:50:11.002000,4151.29032258,0,4224.19354839,0,4204.51612903,0,4148.06451613,0,4164.19354839,0,4165.16129032,0,4191.93548387,0,4081.29032258,0,4162.25806452,0,4625.16129032,0,4042.25806452,0,4217.09677419,0,4205.48387097,0,4166.4516129,0,0,0,?
2018-01-30 09:50:11.019000,4168.38709677,0,4227.09677419,0,4167.41935484,0,4131.29032258,0,4195.80645161,0,4204.83870968,0,4189.67741935,0,4095.16129032,0,4197.41935484,0,4610.0,0,4073.5483871,0,4243.5483871,0,4230.0,0,4178.38709677,0,0,0,?
2018-01-30 09:50:11.021000,4187.74193548,0,4214.51612903,0,4141.93548387,0,4100.96774194,0,4201.61290323,0,4210.96774194,0,4171.61290323,0,4068.38709677,0,4130.64516129,0,4582.25806452,0,4040.32258065,0,4256.77419355,0,4209.03225806,0,4137.74193548,0,0,0,?
2018-01-30 09:50:11.030000,4184.19354839,0,4212.58064516,0,4216.4516129,0,4176.4516129,0,4174.51612903,0,4182.58064516,0,4207.41935484,0,4090.64516129,0,4188.70967742,0,4591.93548387,0,4085.80645161,0,4249.35483871,0,4249.35483871,0,4165.16129032,0,0,0,?
2018-01-30 09:50:11.033000,4212.90322581,0,4218.70967742,0,4152.25806452,0,4098.06451613,0,4204.51612903,0,4162.25806452,0,4167.09677419,0,4062.58064516,0,4129.35483871,0,4626.12903226,0,4053.87096774,0,4234.51612903,0,4223.5483871,0,4156.12903226,0,0,0,?
2018-01-30 09:50:11.045000,4173.5483871,0,4214.83870968,0,4162.25806452,0,4171.93548387,0,4191.61290323,0,4184.51612903,0,4189.03225806,0,4094.19354839,0,4212.25806452,0,4605.16129032,0,4075.48387097,0,4225.80645161,0,4220.96774194,0,4181.29032258,0,0,0,?
2018-01-30 09:50:11.053000,4224.83870968,0,4203.87096774,0,4148.70967742,0,4133.22580645,0,4184.51612903,0,4161.93548387,0,4163.87096774,0,4102.58064516,0,4145.16129032,0,4601.29032258,0,4056.77419355,0,4229.03225806,0,4218.70967742,0,4186.77419355,0,0,0,?
2018-01-30 09:50:11.058000,4224.51612903,0,4237.41935484,0,4120.32258065,0,4131.93548387,0,4165.80645161,0,4184.83870968,0,4187.09677419,0,4072.90322581,0,4110.96774194,0,4590.0,0,4013.5483871,0,4214.83870968,0,4227.41935484,0,4166.4516129,0,0,0,?
2018-01-30 09:50:11.067000,4180.32258065,0,4206.12903226,0,4186.77419355,0,4183.22580645,0,4185.48387097,0,4174.83870968,0,4198.70967742,0,4104.19354839,0,4241.93548387,0,4627.41935484,0,4099.35483871,0,4230.32258065,0,4227.41935484,0,4184.83870968,0,0,0,?
2018-01-30 09:50:11.079000,4218.38709677,0,4224.19354839,0,4159.03225806,0,4099.35483871,0,4210.96774194,0,4166.12903226,0,4211.29032258,0,4092.25806452,0,4172.25806452,0,4628.70967742,0,4023.87096774,0,4269.03225806,0,4242.58064516,0,4184.83870968,0,0,0,?
2018-01-30 09:50:11.082000,4185.48387097,0,4208.06451613,0,4180.64516129,0,4160.96774194,0,4180.64516129,0,4174.19354839,0,4184.83870968,0,4087.41935484,0,4208.38709677,0,4589.67741935,0,4050.0,0,4241.61290323,0,4228.70967742,0,4197.41935484,0,0,0,?
2018-01-30 09:50:11.092000,4235.16129032,0,4195.48387097,0,4149.67741935,0,4177.09677419,0,4161.93548387,0,4174.83870968,0,4210.32258065,0,4090.32258065,0,4194.19354839,0,4593.87096774,0,4079.03225806,0,4252.58064516,0,4225.80645161,0,4220.0,0,0,0,?
2018-01-30 09:50:11.096000,4204.83870968,0,4238.06451613,0,4149.03225806,0,4145.48387097,0,4181.29032258,0,4196.77419355,0,4194.51612903,0,4061.93548387,0,4160.32258065,0,4589.35483871,0,4036.4516129,0,4262.58064516,0,4237.74193548,0,4205.16129032,0,0,0,?
2018-01-30 09:50:11.108000,4180.0,0,4193.5483871,0,4169.67741935,0,4207.74193548,0,4162.25806452,0,4207.41935484,0,4203.22580645,0,4106.77419355,0,4198.06451613,0,4614.83870968,0,4102.90322581,0,4248.38709677,0,4199.67741935,0,4231.93548387,0,0,0,?
2018-01-30 09:50:11.116000,4203.87096774,0,4194.19354839,0,4121.29032258,0,4121.29032258,0,4182.58064516,0,4203.22580645,0,4181.93548387,0,4071.61290323,0,4162.25806452,0,4597.09677419,0,4054.51612903,0,4246.4516129,0,4195.80645161,0,4166.77419355,0,0,0,?
2018-01-30 09:50:11.124000,4193.5483871,0,4238.38709677,0,4175.48387097,0,4175.48387097,0,4201.61290323,0,4167.41935484,0,4211.29032258,0,4096.12903226,0,4171.61290323,0,4591.29032258,0,4067.09677419,0,4259.67741935,0,4201.93548387,0,4170.64516129,0,0,0,?
2018-01-30 09:50:11.129000,4225.80645161,0,4197.09677419,0,4183.87096774,0,4203.22580645,0,4204.19354839,0,4165.48387097,0,4177.09677419,0,4068.38709677,0,4204.19354839,0,4603.22580645,0,4084.83870968,0,4228.70967742,0,4224.19354839,0,4230.0,0,0,0,?
2018-01-30 09:50:11.140000,4220.96774194,0,4240.64516129,0,4160.32258065,0,4121.29032258,0,4200.32258065,0,4166.4516129,0,4185.48387097,0,4077.41935484,0,4155.16129032,0,4568.70967742,0,4037.41935484,0,4242.90322581,0,4241.93548387,0,4163.22580645,0,0,0,?
2018-01-30 09:50:11.143000,4190.96774194,0,4242.90322581,0,4178.06451613,0,4193.22580645,0,4184.51612903,0,4203.22580645,0,4200.64516129,0,4120.64516129,0,4242.25806452,0,4611.93548387,0,4144.19354839,0,4263.5483871,0,4240.64516129,0,4205.16129032,0,0,0,?
2018-01-30 09:50:11.156000,4223.5483871,0,4199.03225806,0,4146.77419355,0,4108.06451613,0,4188.70967742,0,4175.80645161,0,4175.16129032,0,4089.35483871,0,4201.29032258,0,4588.38709677,0,4061.29032258,0,4272.90322581,0,4226.77419355,0,4223.87096774,0,0,0,?
2018-01-30 09:50:11.160000,4180.96774194,0,4227.41935484,0,4138.38709677,0,4169.03225806,0,4201.93548387,0,4170.64516129,0,4166.12903226,0,4082.58064516,0,4182.58064516,0,4569.67741935,0,4070.64516129,0,4270.96774194,0,4204.51612903,0,4203.5483871,0,0,0,?
2018-01-30 09:50:11.171000,4202.25806452,0,4223.22580645,0,4177.09677419,0,4175.16129032,0,4194.51612903,0,4176.77419355,0,4206.12903226,0,4123.22580645,0,4202.25806452,0,4598.70967742,0,4100.64516129,0,4258.06451613,0,4246.12903226,0,4242.58064516,0,0,0,?
2018-01-30 09:50:11.176000,4210.0,0,4223.22580645,0,4133.22580645,0,4115.16129032,0,4159.35483871,0,4203.87096774,0,4191.29032258,0,4094.19354839,0,4130.96774194,0,4555.80645161,0,4071.61290323,0,4247.74193548,0,4199.35483871,0,4184.83870968,0,0,0,?
2018-01-30 09:50:11.186000,4181.29032258,0,4217.41935484,0,4137.41935484,0,4210.64516129,0,4209.67741935,0,4174.51612903,0,4210.0,0,4110.64516129,0,4230.64516129,0,4568.70967742,0,4098.06451613,0,4240.96774194,0,4226.77419355,0,4199.67741935,0,0,0,?
2018-01-30 09:50:11.192000,4209.67741935,0,4225.80645161,0,4129.35483871,0,4176.4516129,0,4190.0,0,4167.74193548,0,4206.12903226,0,4060.0,0,4164.19354839,0,4549.35483871,0,4070.32258065,0,4275.48387097,0,4236.77419355,0,4181.93548387,0,0,0,?
2018-01-30 09:50:11.203000,4206.4516129,0,4237.41935484,0,4173.5483871,0,4135.48387097,0,4191.93548387,0,4170.32258065,0,4169.03225806,0,4071.29032258,0,4161.93548387,0,4581.29032258,0,4102.90322581,0,4259.35483871,0,4206.77419355,0,4205.48387097,0,0,0,?
2018-01-30 09:50:11.207000,4173.22580645,0,4204.19354839,0,4165.80645161,0,4158.38709677,0,4193.22580645,0,4175.16129032,0,4215.16129032,0,4113.87096774,0,4235.48387097,0,4559.35483871,0,4140.64516129,0,4232.90322581,0,4246.12903226,0,4225.48387097,0,0,0,?
2018-01-30 09:50:11.218000,4233.87096774,0,4210.96774194,0,4125.48387097,0,4112.25806452,0,4173.5483871,0,4207.41935484,0,4180.0,0,4080.96774194,0,4161.29032258,0,4571.29032258,0,4093.22580645,0,4238.38709677,0,4219.35483871,0,4195.80645161,0,0,0,?
2018-01-30 09:50:11.222000,4191.29032258,0,4220.96774194,0,4142.25806452,0,4172.25806452,0,4175.80645161,0,4191.29032258,0,4233.5483871,0,4108.06451613,0,4243.87096774,0,4592.90322581,0,4142.25806452,0,4242.25806452,0,4238.38709677,0,4201.93548387,0,0,0,?
2018-01-30 09:50:11.233000,4215.48387097,0,4222.25806452,0,4121.61290323,0,4167.41935484,0,4175.80645161,0,4170.96774194,0,4185.16129032,0,4070.32258065,0,4216.77419355,0,4580.32258065,0,4108.70967742,0,4256.4516129,0,4232.90322581,0,4172.90322581,0,0,0,?
2018-01-30 09:50:11.239000,4167.74193548,0,4194.51612903,0,4127.74193548,0,4125.16129032,0,4154.83870968,0,4192.25806452,0,4166.77419355,0,4080.32258065,0,4186.4516129,0,4549.67741935,0,4053.5483871,0,4211.93548387,0,4196.4516129,0,4175.48387097,0,0,0,?
2018-01-30 09:50:11.249000,4194.83870968,0,4241.61290323,0,4144.19354839,0,4160.32258065,0,4191.61290323,0,4165.48387097,0,4193.22580645,0,4091.29032258,0,4209.03225806,0,4588.70967742,0,4110.96774194,0,4259.35483871,0,4240.32258065,0,4216.77419355,0,0,0,?
2018-01-30 09:50:11.254000,4212.90322581,0,4242.58064516,0,4093.22580645,0,4122.58064516,0,4180.0,0,4167.41935484,0,4205.48387097,0,4072.90322581,0,4167.74193548,0,4561.93548387,0,4049.67741935,0,4229.67741935,0,4214.19354839,0,4190.32258065,0,0,0,?
2018-01-30 09:50:11.265000,4181.29032258,0,4239.67741935,0,4132.25806452,0,4172.58064516,0,4199.03225806,0,4177.09677419,0,4198.70967742,0,4075.80645161,0,4197.74193548,0,4571.29032258,0,4099.67741935,0,4268.06451613,0,4228.06451613,0,4173.22580645,0,0,0,?
2018-01-30 09:50:11.271000,4196.77419355,0,4200.64516129,0,4132.58064516,0,4133.5483871,0,4164.51612903,0,4204.83870968,0,4190.0,0,4084.19354839,0,4172.25806452,0,4559.03225806,0,4093.5483871,0,4244.51612903,0,4231.61290323,0,4172.25806452,0,0,0,?
2018-01-30 09:50:11.283000,4170.32258065,0,4241.93548387,0,4142.25806452,0,4125.16129032,0,4181.61290323,0,4210.96774194,0,4177.74193548,0,4079.35483871,0,4151.61290323,0,4525.48387097,0,4093.5483871,0,4214.83870968,0,4242.58064516,0,4191.93548387,0,0,0,?
2018-01-30 09:50:11.285000,4195.48387097,0,4229.67741935,0,4178.70967742,0,4152.25806452,0,4205.16129032,0,4186.77419355,0,4209.35483871,0,4109.35483871,0,4211.93548387,0,4552.90322581,0,4108.70967742,0,4259.03225806,0,4232.58064516,0,4224.51612903,0,0,0,?
2018-01-30 09:50:11.301000,4212.58064516,0,4218.38709677,0,4095.48387097,0,4074.51612903,0,4151.29032258,0,4200.64516129,0,4177.74193548,0,4043.5483871,0,4150.96774194,0,4557.74193548,0,4078.38709677,0,4211.29032258,0,4212.58064516,0,4177.41935484,0,0,0,?
2018-01-30 09:50:11.302000,4180.64516129,0,4215.48387097,0,4138.70967742,0,4175.16129032,0,4177.09677419,0,4201.93548387,0,4187.74193548,0,4064.83870968,0,4189.03225806,0,4566.12903226,0,4083.87096774,0,4246.77419355,0,4216.4516129,0,4208.06451613,0,0,0,?
2018-01-30 09:50:11.313000,4206.12903226,0,4216.12903226,0,4098.06451613,0,4100.96774194,0,4160.32258065,0,4193.5483871,0,4196.12903226,0,4089.35483871,0,4183.5483871,0,4559.67741935,0,4114.51612903,0,4229.35483871,0,4216.4516129,0,4181.93548387,0,0,0,?
2018-01-30 09:50:11.318000,4185.48387097,0,4198.38709677,0,4083.87096774,0,4058.06451613,0,4159.35483871,0,4192.90322581,0,4154.83870968,0,4041.29032258,0,4152.90322581,0,4512.90322581,0,4058.70967742,0,4193.87096774,0,4197.74193548,0,4183.22580645,0,0,0,?
2018-01-30 09:50:11.328000,4184.19354839,0,4206.77419355,0,4141.93548387,0,4155.16129032,0,4186.4516129,0,4171.93548387,0,4200.0,0,4089.03225806,0,4227.74193548,0,4557.41935484,0,4120.96774194,0,4260.0,0,4248.70967742,0,4209.67741935,0,0,0,?
2018-01-30 09:50:11.334000,4208.70967742,0,4220.64516129,0,4072.58064516,0,4070.96774194,0,4145.48387097,0,4194.83870968,0,4152.25806452,0,4040.96774194,0,4141.29032258,0,4529.03225806,0,4065.16129032,0,4207.09677419,0,4194.19354839,0,4173.87096774,0,0,0,?
2018-01-30 09:50:11.344000,4175.80645161,0,4224.83870968,0,4109.67741935,0,4125.48387097,0,4180.32258065,0,4203.5483871,0,4197.74193548,0,4102.58064516,0,4158.06451613,0,4519.35483871,0,4108.38709677,0,4214.51612903,0,4236.4516129,0,4163.22580645,0,0,0,?
2018-01-30 09:50:11.348000,4180.64516129,0,4199.67741935,0,4117.09677419,0,4100.0,0,4188.70967742,0,4168.06451613,0,4184.51612903,0,4076.77419355,0,4171.29032258,0,4528.38709677,0,4128.06451613,0,4225.48387097,0,4224.19354839,0,4225.48387097,0,0,0,?
2018-01-30 09:50:11.359000,4175.16129032,0,4206.77419355,0,4110.64516129,0,4083.87096774,0,4183.5483871,0,4210.64516129,0,4192.25806452,0,4087.41935484,0,4166.77419355,0,4488.38709677,0,4058.70967742,0,4197.09677419,0,4230.64516129,0,4202.25806452,0,0,0,?
2018-01-30 09:50:11.369000,4181.93548387,0,4205.80645161,0,4129.35483871,0,4155.80645161,0,4196.77419355,0,4162.90322581,0,4186.12903226,0,4106.12903226,0,4230.0,0,4503.5483871,0,4126.77419355,0,4245.48387097,0,4211.61290323,0,4191.61290323,0,0,0,?
2018-01-30 09:50:11.375000,4225.48387097,0,4198.38709677,0,4052.90322581,0,4034.51612903,0,4143.5483871,0,4182.25806452,0,4132.90322581,0,4038.06451613,0,4143.87096774,0,4524.19354839,0,4064.83870968,0,4197.74193548,0,4242.90322581,0,4160.32258065,0,0,0,?
2018-01-30 09:50:11.382000,4196.4516129,0,4235.16129032,0,4133.87096774,0,4100.64516129,0,4173.87096774,0,4194.51612903,0,4187.09677419,0,4105.48387097,0,4171.29032258,0,4527.41935484,0,4096.4516129,0,4221.93548387,0,4236.12903226,0,4195.48387097,0,0,0,?
2018-01-30 09:50:11.391000,4201.29032258,0,4203.22580645,0,4129.03225806,0,4153.5483871,0,4190.32258065,0,4167.09677419,0,4190.32258065,0,4107.41935484,0,4191.61290323,0,4496.4516129,0,4135.48387097,0,4245.16129032,0,4225.80645161,0,4214.19354839,0,0,0,?
2018-01-30 09:50:11.396000,4232.90322581,0,4211.93548387,0,4072.58064516,0,4119.03225806,0,4185.80645161,0,4170.64516129,0,4192.25806452,0,4095.80645161,0,4160.32258065,0,4514.51612903,0,4090.96774194,0,4198.06451613,0,4197.41935484,0,4191.29032258,0,0,0,?
2018-01-30 09:50:11.407000,4170.32258065,0,4207.74193548,0,4159.67741935,0,4149.03225806,0,4202.25806452,0,4176.12903226,0,4191.61290323,0,4115.80645161,0,4195.80645161,0,4485.48387097,0,4132.25806452,0,4232.25806452,0,4227.09677419,0,4196.12903226,0,0,0,?
2018-01-30 09:50:11.411000,4197.74193548,0,4200.96774194,0,4100.96774194,0,4075.80645161,0,4154.51612903,0,4190.64516129,0,4148.70967742,0,4066.77419355,0,4174.19354839,0,4505.80645161,0,4069.67741935,0,4229.67741935,0,4202.58064516,0,4194.51612903,0,0,0,?
2018-01-30 09:50:11.422000,4170.0,0,4196.77419355,0,4138.70967742,0,4093.22580645,0,4191.93548387,0,4200.96774194,0,4190.0,0,4070.0,0,4210.96774194,0,4505.48387097,0,4132.58064516,0,4202.25806452,0,4239.35483871,0,4167.09677419,0,0,0,?
2018-01-30 09:50:11.428000,4194.83870968,0,4207.74193548,0,4135.80645161,0,4140.64516129,0,4192.25806452,0,4202.25806452,0,4176.12903226,0,4121.93548387,0,4227.74193548,0,4512.58064516,0,4131.29032258,0,4239.03225806,0,4234.51612903,0,4204.19354839,0,0,0,?
2018-01-30 09:50:11.439000,4219.67741935,0,4242.90322581,0,4076.4516129,0,4070.96774194,0,4146.4516129,0,4173.87096774,0,4137.09677419,0,4074.83870968,0,4138.70967742,0,4500.32258065,0,4082.25806452,0,4233.5483871,0,4196.12903226,0,4146.77419355,0,0,0,?
2018-01-30 09:50:11.443000,4201.29032258,0,4233.87096774,0,4076.4516129,0,4177.74193548,0,4173.5483871,0,4200.0,0,4210.32258065,0,4097.74193548,0,4186.77419355,0,4497.74193548,0,4114.51612903,0,4226.12903226,0,4213.87096774,0,4170.96774194,0,0,0,?
2018-01-30 09:50:11.454000,4231.29032258,0,4240.96774194,0,4087.74193548,0,4107.41935484,0,4154.83870968,0,4190.0,0,4161.29032258,0,4101.61290323,0,4146.12903226,0,4505.80645161,0,4070.0,0,4194.83870968,0,4210.32258065,0,4188.06451613,0,0,0,?
2018-01-30 09:50:11.459000,4209.03225806,0,4240.0,0,4123.87096774,0,4115.16129032,0,4194.83870968,0,4198.38709677,0,4185.48387097,0,4095.80645161,0,4189.67741935,0,4477.41935484,0,4097.74193548,0,4197.41935484,0,4212.25806452,0,4191.61290323,0,0,0,?
2018-01-30 09:50:11.471000,4190.32258065,0,4242.25806452,0,4148.70967742,0,4173.22580645,0,4194.83870968,0,4205.16129032,0,4173.22580645,0,4104.83870968,0,4241.93548387,0,4482.58064516,0,4156.77419355,0,4220.0,0,4246.77419355,0,4188.38709677,0,0,0,?
2018-01-30 09:50:11.477000,4231.93548387,0,4221.93548387,0,4066.4516129,0,4067.09677419,0,4139.03225806,0,4161.29032258,0,4132.90322581,0,4042.58064516,0,4141.29032258,0,4479.67741935,0,4036.4516129,0,4201.61290323,0,4234.51612903,0,4160.32258065,0,0,0,?
2018-01-30 09:50:11.485000,4202.90322581,0,4213.5483871,0,4108.06451613,0,4097.09677419,0,4174.83870968,0,4174.51612903,0,4188.38709677,0,4109.03225806,0,4167.74193548,0,4486.4516129,0,4127.74193548,0,4226.12903226,0,4243.22580645,0,4177.74193548,0,0,0,?
2018-01-30 09:50:11.490000,4238.06451613,0,4220.32258065,0,4089.03225806,0,4069.35483871,0,4160.96774194,0,4182.58064516,0,4132.25806452,0,4099.67741935,0,4179.03225806,0,4476.77419355,0,4081.93548387,0,4201.93548387,0,4202.25806452,0,4167.09677419,0,0,0,?
2018-01-30 09:50:11.502000,4170.0,0,4206.12903226,0,4106.77419355,0,4112.25806452,0,4164.51612903,0,4179.03225806,0,4130.96774194,0,4080.96774194,0,4151.93548387,0,4468.38709677,0,4113.87096774,0,4204.83870968,0,4242.58064516,0,4174.83870968,0,0,0,?
2018-01-30 09:50:11.507000,4175.80645161,0,4204.51612903,0,4078.06451613,0,4135.80645161,0,4175.48387097,0,4173.22580645,0,4165.16129032,0,4089.35483871,0,4190.32258065,0,4478.06451613,0,4145.80645161,0,4232.58064516,0,4225.80645161,0,4200.96774194,0,0,0,?
2018-01-30 09:50:11.518000,4228.38709677,0,4199.03225806,0,4065.16129032,0,4070.96774194,0,4165.16129032,0,4161.93548387,0,4150.96774194,0,4048.06451613,0,4100.64516129,0,4422.90322581,0,4096.4516129,0,4176.4516129,0,4236.77419355,0,4132.90322581,0,0,0,?
2018-01-30 09:50:11.523000,4194.83870968,0,4187.09677419,0,4084.19354839,0,4133.87096774,0,4193.5483871,0,4188.06451613,0,4193.5483871,0,4075.48387097,0,4143.5483871,0,4449.67741935,0,4125.48387097,0,4219.35483871,0,4204.83870968,0,4160.64516129,0,0,0,?
2018-01-30 09:50:11.534000,4219.67741935,0,4186.77419355,0,4074.51612903,0,4088.38709677,0,4157.41935484,0,4173.87096774,0,4154.19354839,0,4111.93548387,0,4169.35483871,0,4455.48387097,0,4089.67741935,0,4203.87096774,0,4216.12903226,0,4148.38709677,0,0,0,?
2018-01-30 09:50:11.538000,4176.4516129,0,4178.06451613,0,4020.0,0,4076.4516129,0,4160.96774194,0,4163.87096774,0,4145.48387097,0,4071.29032258,0,4188.70967742,0,4424.51612903,0,4119.03225806,0,4192.25806452,0,4203.5483871,0,4136.4516129,0,0,0,?
2018-01-30 09:50:11.549000,4170.0,0,4178.06451613,0,4076.77419355,0,4117.74193548,0,4160.32258065,0,4160.0,0,4195.16129032,0,4098.70967742,0,4203.5483871,0,4437.41935484,0,4142.90322581,0,4229.35483871,0,4237.41935484,0,4182.58064516,0,0,0,?
2018-01-30 09:50:11.553000,4210.96774194,0,4187.74193548,0,4032.25806452,0,4080.64516129,0,4147.41935484,0,4149.35483871,0,4172.90322581,0,4077.09677419,0,4159.67741935,0,4459.67741935,0,4103.22580645,0,4186.77419355,0,4197.41935484,0,4168.38709677,0,0,0,?
2018-01-30 09:50:11.564000,4183.22580645,0,4209.67741935,0,4137.09677419,0,4156.77419355,0,4208.38709677,0,4189.67741935,0,4161.93548387,0,4111.93548387,0,4251.93548387,0,4435.80645161,0,4166.77419355,0,4235.48387097,0,4220.0,0,4168.06451613,0,0,0,?
2018-01-30 09:50:11.570000,4214.83870968,0,4203.22580645,0,4060.64516129,0,4110.0,0,4159.03225806,0,4162.90322581,0,4166.4516129,0,4076.12903226,0,4222.90322581,0,4462.90322581,0,4136.4516129,0,4205.80645161,0,4225.80645161,0,4170.0,0,0,0,?
2018-01-30 09:50:11.582000,4166.4516129,0,4163.22580645,0,4021.61290323,0,4089.67741935,0,4139.03225806,0,4136.12903226,0,4161.29032258,0,4037.74193548,0,4119.03225806,0,4412.90322581,0,4109.67741935,0,4161.61290323,0,4235.16129032,0,4133.22580645,0,0,0,?
2018-01-30 09:50:11.585000,4201.29032258,0,4176.4516129,0,4096.77419355,0,4118.38709677,0,4186.12903226,0,4160.32258065,0,4188.70967742,0,4118.38709677,0,4237.41935484,0,4446.77419355,0,4183.5483871,0,4218.06451613,0,4238.38709677,0,4175.48387097,0,0,0,?
2018-01-30 09:50:11.596000,4219.35483871,0,4194.19354839,0,4051.29032258,0,4083.5483871,0,4177.41935484,0,4151.93548387,0,4145.16129032,0,4100.64516129,0,4212.90322581,0,4419.03225806,0,4108.38709677,0,4188.70967742,0,4227.74193548,0,4196.77419355,0,0,0,?
2018-01-30 09:50:11.601000,4175.48387097,0,4176.77419355,0,4045.80645161,0,4147.41935484,0,4193.5483871,0,4158.38709677,0,4187.41935484,0,4141.93548387,0,4217.09677419,0,4436.12903226,0,4143.5483871,0,4208.70967742,0,4223.5483871,0,4192.25806452,0,0,0,?
2018-01-30 09:50:11.613000,4198.06451613,0,4162.58064516,0,4017.41935484,0,4097.74193548,0,4147.41935484,0,4135.16129032,0,4175.48387097,0,4104.19354839,0,4169.67741935,0,4432.58064516,0,4150.0,0,4184.51612903,0,4219.35483871,0,4144.51612903,0,0,0,?
2018-01-30 09:50:11.616000,4180.32258065,0,4197.74193548,0,4054.51612903,0,4033.22580645,0,4149.35483871,0,4175.48387097,0,4145.48387097,0,4066.4516129,0,4168.06451613,0,4432.25806452,0,4110.0,0,4210.32258065,0,4243.22580645,0,4140.0,0,0,0,?
2018-01-30 09:50:11.627000,4199.03225806,0,4203.87096774,0,4108.06451613,0,4144.51612903,0,4195.16129032,0,4154.19354839,0,4185.80645161,0,4121.61290323,0,4226.12903226,0,4407.41935484,0,4155.48387097,0,4206.77419355,0,4254.51612903,0,4202.90322581,0,0,0,?
2018-01-30 09:50:11.632000,4218.06451613,0,4201.93548387,0,3995.16129032,0,4112.25806452,0,4159.35483871,0,4177.41935484,0,4153.87096774,0,4076.4516129,0,4142.25806452,0,4430.0,0,4104.19354839,0,4192.25806452,0,4229.03225806,0,4176.12903226,0,0,0,?
2018-01-30 09:50:11.643000,4177.41935484,0,4185.80645161,0,4025.48387097,0,4079.35483871,0,4171.93548387,0,4165.80645161,0,4141.29032258,0,4069.67741935,0,4194.83870968,0,4432.90322581,0,4158.06451613,0,4205.16129032,0,4204.83870968,0,4156.77419355,0,0,0,?
2018-01-30 09:50:11.648000,4196.77419355,0,4190.96774194,0,4000.0,0,4076.12903226,0,4146.4516129,0,4149.67741935,0,4164.83870968,0,4090.96774194,0,4196.12903226,0,4431.93548387,0,4146.4516129,0,4197.41935484,0,4216.77419355,0,4163.5483871,0,0,0,?
2018-01-30 09:50:11.659000,4190.32258065,0,4174.51612903,0,3999.67741935,0,4073.87096774,0,4137.74193548,0,4139.35483871,0,4106.4516129,0,4082.25806452,0,4158.38709677,0,4388.70967742,0,4074.19354839,0,4150.0,0,4235.80645161,0,4102.25806452,0,0,0,?
2018-01-30 09:50:11.665000,4179.35483871,0,4157.41935484,0,4007.09677419,0,4146.4516129,0,4166.12903226,0,4158.70967742,0,4133.22580645,0,4066.77419355,0,4190.64516129,0,4408.38709677,0,4160.0,0,4185.16129032,0,4222.25806452,0,4161.93548387,0,0,0,?
2018-01-30 09:50:11.676000,4212.58064516,0,4162.25806452,0,3973.5483871,0,4060.96774194,0,4130.96774194,0,4147.09677419,0,4110.0,0,4078.06451613,0,4129.35483871,0,4379.35483871,0,4069.67741935,0,4136.77419355,0,4204.51612903,0,4117.09677419,0,0,0,?
2018-01-30 09:50:11.680000,4194.83870968,0,4166.77419355,0,4006.77419355,0,4065.80645161,0,4166.4516129,0,4155.80645161,0,4149.67741935,0,4087.74193548,0,4188.38709677,0,4390.0,0,4168.38709677,0,4166.77419355,0,4206.4516129,0,4174.83870968,0,0,0,?
2018-01-30 09:50:11.691000,4181.29032258,0,4168.38709677,0,4010.96774194,0,4112.58064516,0,4150.64516129,0,4129.03225806,0,4155.48387097,0,4077.41935484,0,4171.29032258,0,4399.35483871,0,4149.67741935,0,4174.51612903,0,4234.19354839,0,4139.35483871,0,0,0,?
2018-01-30 09:50:11.696000,4177.09677419,0,4144.19354839,0,3950.96774194,0,4067.74193548,0,4174.83870968,0,4110.32258065,0,4143.5483871,0,4032.58064516,0,4125.48387097,0,4396.77419355,0,4079.03225806,0,4167.09677419,0,4240.64516129,0,4142.25806452,0,0,0,?
2018-01-30 09:50:11.707000,4170.64516129,0,4132.58064516,0,3989.03225806,0,4130.96774194,0,4169.03225806,0,4161.61290323,0,4166.12903226,0,4095.16129032,0,4224.83870968,0,4376.77419355,0,4160.64516129,0,4179.67741935,0,4225.80645161,0,4153.22580645,0,0,0,?
2018-01-30 09:50:11.711000,4205.48387097,0,4129.03225806,0,3971.61290323,0,4071.61290323,0,4138.70967742,0,4141.93548387,0,4134.51612903,0,4077.09677419,0,4185.80645161,0,4404.83870968,0,4133.5483871,0,4153.22580645,0,4216.4516129,0,4157.09677419,0,0,0,?
2018-01-30 09:50:11.722000,4181.93548387,0,4167.74193548,0,3998.06451613,0,4089.35483871,0,4147.09677419,0,4121.61290323,0,4113.22580645,0,4043.22580645,0,4180.32258065,0,4381.93548387,0,4150.0,0,4142.25806452,0,4211.93548387,0,4133.5483871,0,0,0,?
2018-01-30 09:50:11.728000,4162.58064516,0,4174.51612903,0,3990.0,0,4090.0,0,4150.0,0,4130.0,0,4158.70967742,0,4083.22580645,0,4243.22580645,0,4404.83870968,0,4149.03225806,0,4157.74193548,0,4257.74193548,0,4159.67741935,0,0,0,?
2018-01-30 09:50:11.739000,4181.61290323,0,4170.64516129,0,3957.41935484,0,4061.29032258,0,4133.22580645,0,4119.67741935,0,4141.93548387,0,4067.74193548,0,4157.09677419,0,4379.35483871,0,4104.19354839,0,4130.64516129,0,4221.93548387,0,4157.09677419,0,0,0,?
2018-01-30 09:50:11.742000,4164.83870968,0,4163.87096774,0,3983.5483871,0,4113.87096774,0,4141.29032258,0,4118.38709677,0,4145.48387097,0,4080.96774194,0,4235.48387097,0,4391.93548387,0,4207.74193548,0,4176.77419355,0,4238.38709677,0,4142.25806452,0,0,0,?
2018-01-30 09:50:11.753000,4200.64516129,0,4160.96774194,0,3927.74193548,0,4063.22580645,0,4150.96774194,0,4139.03225806,0,4129.35483871,0,4043.22580645,0,4155.48387097,0,4364.51612903,0,4170.64516129,0,4177.41935484,0,4229.35483871,0,4138.06451613,0,0,0,?
2018-01-30 09:50:11.758000,4176.4516129,0,4160.0,0,3949.67741935,0,4090.32258065,0,4138.06451613,0,4105.48387097,0,4110.32258065,0,4032.90322581,0,4197.09677419,0,4360.64516129,0,4171.93548387,0,4135.48387097,0,4226.4516129,0,4162.90322581,0,0,0,?
2018-01-30 09:50:11.770000,4191.29032258,0,4157.74193548,0,3999.35483871,0,4123.5483871,0,4135.48387097,0,4119.67741935,0,4129.67741935,0,4074.19354839,0,4218.38709677,0,4381.29032258,0,4191.93548387,0,4167.09677419,0,4262.58064516,0,4173.22580645,0,0,0,?
2018-01-30 09:50:11.776000,4184.51612903,0,4138.70967742,0,3936.4516129,0,4060.0,0,4130.96774194,0,4123.87096774,0,4068.06451613,0,4009.03225806,0,4121.29032258,0,4369.03225806,0,4154.51612903,0,4136.12903226,0,4214.19354839,0,4128.38709677,0,0,0,?
2018-01-30 09:50:11.785000,4161.29032258,0,4150.0,0,3978.38709677,0,4134.83870968,0,4130.64516129,0,4133.87096774,0,4113.5483871,0,4070.64516129,0,4176.12903226,0,4349.03225806,0,4226.12903226,0,4133.22580645,0,4245.80645161,0,4187.09677419,0,0,0,?
2018-01-30 09:50:11.791000,4201.61290323,0,4160.32258065,0,3935.48387097,0,4096.77419355,0,4133.22580645,0,4142.90322581,0,4131.93548387,0,4036.77419355,0,4166.4516129,0,4357.41935484,0,4242.58064516,0,4178.70967742,0,4260.64516129,0,4196.12903226,0,0,0,?
2018-01-30 09:50:11.801000,4199.35483871,0,4135.48387097,0,3981.93548387,0,4088.70967742,0,4130.96774194,0,4143.5483871,0,4113.22580645,0,4067.09677419,0,4167.09677419,0,4366.77419355,0,4203.22580645,0,4153.87096774,0,4238.38709677,0,4163.87096774,0,0,0,?
2018-01-30 09:50:11.806000,4191.61290323,0,4134.51612903,0,3988.38709677,0,4088.38709677,0,4169.67741935,0,4129.35483871,0,4123.5483871,0,4079.03225806,0,4199.35483871,0,4337.09677419,0,4258.06451613,0,4131.29032258,0,4226.4516129,0,4204.83870968,0,0,0,?
2018-01-30 09:50:11.816000,4198.06451613,0,4122.90322581,0,3904.19354839,0,4045.80645161,0,4143.22580645,0,4095.16129032,0,4098.38709677,0,4047.09677419,0,4165.80645161,0,4370.32258065,0,4192.58064516,0,4135.48387097,0,4240.96774194,0,4113.87096774,0,0,0,?
2018-01-30 09:50:11.821000,4182.90322581,0,4104.19354839,0,3965.48387097,0,4079.03225806,0,4134.83870968,0,4119.67741935,0,4142.25806452,0,4050.64516129,0,4239.67741935,0,4325.80645161,0,4243.22580645,0,4168.70967742,0,4251.61290323,0,4154.51612903,0,0,0,?
2018-01-30 09:50:11.833000,4201.93548387,0,4112.25806452,0,3951.29032258,0,4081.61290323,0,4161.61290323,0,4104.51612903,0,4114.19354839,0,4066.77419355,0,4164.19354839,0,4347.74193548,0,4220.32258065,0,4149.03225806,0,4255.48387097,0,4146.77419355,0,0,0,?
2018-01-30 09:50:11.837000,4197.41935484,0,4099.35483871,0,3909.35483871,0,4056.12903226,0,4159.35483871,0,4079.67741935,0,4109.67741935,0,4078.06451613,0,4169.67741935,0,4323.22580645,0,4193.5483871,0,4125.16129032,0,4227.74193548,0,4140.64516129,0,0,0,?
2018-01-30 09:50:11.851000,4186.4516129,0,4139.35483871,0,3974.83870968,0,4122.90322581,0,4170.96774194,0,4088.70967742,0,4140.96774194,0,4059.35483871,0,4235.80645161,0,4337.41935484,0,4205.48387097,0,4146.77419355,0,4268.38709677,0,4142.25806452,0,0,0,?
2018-01-30 09:50:11.854000,4200.64516129,0,4105.48387097,0,3905.16129032,0,4074.19354839,0,4172.58064516,0,4094.51612903,0,4100.96774194,0,4052.58064516,0,4167.41935484,0,4298.06451613,0,4174.19354839,0,4116.12903226,0,4251.93548387,0,4109.03225806,0,0,0,?
2018-01-30 09:50:11.865000,4170.0,0,4117.41935484,0,4006.77419355,0,4163.22580645,0,4183.87096774,0,4123.5483871,0,4167.74193548,0,4121.29032258,0,4273.5483871,0,4337.41935484,0,4236.4516129,0,4129.03225806,0,4270.0,0,4169.35483871,0,0,0,?
2018-01-30 09:50:11.869000,4186.12903226,0,4099.35483871,0,3908.06451613,0,4132.90322581,0,4135.48387097,0,4092.58064516,0,4142.25806452,0,4100.96774194,0,4213.5483871,0,4319.03225806,0,4227.74193548,0,4140.0,0,4271.61290323,0,4161.29032258,0,0,0,?
2018-01-30 09:50:11.881000,4199.03225806,0,4127.74193548,0,3896.4516129,0,4087.09677419,0,4177.09677419,0,4077.09677419,0,4094.83870968,0,4072.90322581,0,4173.5483871,0,4298.70967742,0,4163.22580645,0,4145.80645161,0,4251.29032258,0,4130.0,0,0,0,?
2018-01-30 09:50:11.885000,4183.87096774,0,4142.58064516,0,3936.77419355,0,4175.80645161,0,4171.61290323,0,4102.25806452,0,4155.80645161,0,4090.32258065,0,4270.32258065,0,4328.70967742,0,4227.09677419,0,4152.58064516,0,4255.80645161,0,4154.19354839,0,0,0,?
2018-01-30 09:50:11.900000,4206.4516129,0,4141.61290323,0,3916.4516129,0,4087.41935484,0,4129.03225806,0,4080.0,0,4135.16129032,0,4043.87096774,0,4209.67741935,0,4309.67741935,0,4243.22580645,0,4108.70967742,0,4272.58064516,0,4142.25806452,0,0,0,?
2018-01-30 09:50:11.902000,4163.5483871,0,4127.09677419,0,3943.87096774,0,4144.83870968,0,4154.83870968,0,4085.16129032,0,4145.48387097,0,4080.64516129,0,4256.4516129,0,4313.22580645,0,4229.03225806,0,4140.0,0,4231.93548387,0,4158.70967742,0,0,0,?
2018-01-30 09:50:11.912000,4186.4516129,0,4127.09677419,0,3920.96774194,0,4122.90322581,0,4153.22580645,0,4113.22580645,0,4142.58064516,0,4078.06451613,0,4234.83870968,0,4306.4516129,0,4210.0,0,4128.38709677,0,4257.09677419,0,4158.38709677,0,0,0,?
2018-01-30 09:50:11.917000,4181.29032258,0,4106.12903226,0,3919.67741935,0,4086.4516129,0,4133.22580645,0,4075.48387097,0,4119.35483871,0,4070.0,0,4219.35483871,0,4258.06451613,0,4184.83870968,0,4121.61290323,0,4267.74193548,0,4121.61290323,0,0,0,?
2018-01-30 09:50:11.927000,4185.48387097,0,4096.12903226,0,3930.64516129,0,4139.67741935,0,4133.5483871,0,4080.0,0,4109.35483871,0,4072.58064516,0,4287.41935484,0,4272.25806452,0,4273.5483871,0,4101.29032258,0,4246.4516129,0,4129.03225806,0,0,0,?
2018-01-30 09:50:11.932000,4208.70967742,0,4102.58064516,0,3886.4516129,0,4067.09677419,0,4166.12903226,0,4075.80645161,0,4113.22580645,0,4074.19354839,0,4201.61290323,0,4305.16129032,0,4178.38709677,0,4118.38709677,0,4228.06451613,0,4134.83870968,0,0,0,?
2018-01-30 09:50:11.944000,4191.61290323,0,4108.38709677,0,3892.25806452,0,4157.74193548,0,4178.70967742,0,4098.70967742,0,4137.09677419,0,4075.16129032,0,4277.09677419,0,4280.0,0,4250.0,0,4110.96774194,0,4239.03225806,0,4131.29032258,0,0,0,?
2018-01-30 09:50:11.947000,4200.0,0,4108.70967742,0,3906.77419355,0,4177.74193548,0,4154.83870968,0,4078.70967742,0,4131.29032258,0,4096.12903226,0,4261.61290323,0,4273.5483871,0,4261.29032258,0,4110.32258065,0,4264.83870968,0,4129.03225806,0,0,0,?
2018-01-30 09:50:11.959000,4178.70967742,0,4088.70967742,0,3888.70967742,0,4146.12903226,0,4170.64516129,0,4053.22580645,0,4133.22580645,0,4072.90322581,0,4238.70967742,0,4261.93548387,0,4177.74193548,0,4111.29032258,0,4234.19354839,0,4091.29032258,0,0,0,?
2018-01-30 09:50:11.963000,4178.38709677,0,4093.87096774,0,3917.09677419,0,4206.77419355,0,4155.80645161,0,4070.0,0,4165.16129032,0,4078.38709677,0,4263.22580645,0,4298.38709677,0,4256.77419355,0,4110.32258065,0,4279.03225806,0,4135.48387097,0,0,0,?
